[DEFAULT]

version = diffpy.pdfgetx-2.1.0

# input and output specifications
dataformat = QA
backgroundfile =
outputtype = sq

# PDF calculation setup
mode = xray
composition = Ni
bgscale = 1
rpoly = 2
qmaxinst = 25
qmin = 0
qmax = 24
rmin = 2
rmax = 60
rstep = 0.01

# End of config --------------------------------------------------------------

#### start data
#S 1
#L Q(Ã…$^{-1}$)  S(a.u.)
0 -0.744411
0.0229437 -0.632282
0.0458873 -0.526606
0.068831 -0.426192
0.0917746 -0.331353
0.114718 -0.240823
0.137662 -0.154245
0.160606 -0.0718939
0.183549 0.00664366
0.206493 0.0806693
0.229437 0.150713
0.25238 0.218662
0.275324 0.287571
0.298268 0.370901
0.321211 0.475337
0.344155 0.615842
0.367099 0.668487
0.390042 0.650897
0.412986 0.657635
0.43593 0.678298
0.458873 0.710366
0.481817 0.749712
0.504761 0.786649
0.527704 0.820616
0.550648 0.853356
0.573591 0.884633
0.596535 0.915916
0.619479 0.949283
0.642422 0.981264
0.665366 1.01134
0.68831 1.03877
0.711253 1.06167
0.734197 1.08138
0.757141 1.09884
0.780084 1.11307
0.803028 1.12351
0.825972 1.13097
0.848915 1.13763
0.871859 1.14381
0.894803 1.15034
0.917746 1.15743
0.94069 1.16535
0.963634 1.17293
0.986577 1.17975
1.00952 1.18579
1.03246 1.18919
1.05541 1.18992
1.07835 1.18928
1.1013 1.18835
1.12424 1.18736
1.14718 1.18633
1.17013 1.18442
1.19307 1.18163
1.21601 1.17885
1.23896 1.17571
1.2619 1.17259
1.28484 1.1695
1.30779 1.16611
1.33073 1.16221
1.35368 1.15716
1.37662 1.15112
1.39956 1.14381
1.42251 1.13554
1.44545 1.12644
1.46839 1.11698
1.49134 1.10611
1.51428 1.09428
1.53723 1.08144
1.56017 1.0677
1.58311 1.05339
1.60606 1.03801
1.629 1.02318
1.65194 1.00909
1.67489 0.99563
1.69783 0.983085
1.72077 0.972478
1.74372 0.962679
1.76666 0.953472
1.78961 0.945141
1.81255 0.936789
1.83549 0.927852
1.85844 0.918518
1.88138 0.908842
1.90432 0.899181
1.92727 0.889735
1.95021 0.880107
1.97315 0.870713
1.9961 0.861606
2.01904 0.852358
2.04199 0.8434
2.06493 0.834911
2.08787 0.827407
2.11082 0.820261
2.13376 0.813938
2.1567 0.808007
2.17965 0.80188
2.20259 0.795595
2.22554 0.789652
2.24848 0.783778
2.27142 0.778698
2.29437 0.773984
2.31731 0.769604
2.34025 0.765591
2.3632 0.761769
2.38614 0.758116
2.40908 0.754976
2.43203 0.752316
2.45497 0.750024
2.47792 0.748138
2.50086 0.746365
2.5238 0.744722
2.54675 0.743551
2.56969 0.742436
2.59263 0.741264
2.61558 0.740464
2.63852 0.740171
2.66146 0.740319
2.68441 0.740531
2.70735 0.740564
2.7303 0.740866
2.75324 0.741566
2.77618 0.741915
2.79913 0.743283
2.82207 0.745317
2.84501 0.747464
2.86796 0.751151
2.8909 0.756408
2.91384 0.764386
2.93679 0.779047
2.95973 0.811555
2.98268 0.889164
3.00562 1.11211
3.02856 1.73818
3.05151 2.94152
3.07445 4.07945
3.09739 4.15982
3.12034 3.08007
3.14328 1.84977
3.16623 1.17441
3.18917 0.918482
3.21211 0.829796
3.23506 0.795254
3.258 0.778513
3.28094 0.769356
3.30389 0.763992
3.32683 0.760943
3.34977 0.759738
3.37272 0.760359
3.39566 0.76354
3.41861 0.77134
3.44155 0.790649
3.46449 0.840678
3.48744 0.985963
3.51038 1.37499
3.53332 2.07516
3.55627 2.61467
3.57921 2.5321
3.60215 1.87808
3.6251 1.25873
3.64804 0.944876
3.67099 0.826103
3.69393 0.783505
3.71687 0.766372
3.73982 0.759081
3.76276 0.755825
3.7857 0.754359
3.80865 0.752632
3.83159 0.751662
3.85453 0.750955
3.87748 0.750512
3.90042 0.750505
3.92337 0.75073
3.94631 0.751043
3.96925 0.751422
3.9922 0.751732
4.01514 0.751948
4.03808 0.752096
4.06103 0.752864
4.08397 0.753704
4.10692 0.75472
4.12986 0.755467
4.1528 0.756332
4.17575 0.757144
4.19869 0.758424
4.22163 0.759386
4.24458 0.76011
4.26752 0.760883
4.29046 0.761992
4.31341 0.763205
4.33635 0.763883
4.3593 0.765107
4.38224 0.7658
4.40518 0.76685
4.42813 0.767935
4.45107 0.768958
4.47401 0.770016
4.49696 0.771594
4.5199 0.773462
4.54284 0.774664
4.56579 0.775747
4.58873 0.777023
4.61168 0.778571
4.63462 0.780356
4.65756 0.782155
4.68051 0.783633
4.70345 0.785465
4.72639 0.787994
4.74934 0.790364
4.77228 0.792514
4.79522 0.795269
4.81817 0.798741
4.84111 0.802465
4.86406 0.808
4.887 0.81688
4.90994 0.833882
4.93289 0.871326
4.95583 0.97079
4.97877 1.26165
5.00172 1.89035
5.02466 2.59728
5.04761 2.70805
5.07055 2.1659
5.09349 1.47774
5.11644 1.07466
5.13938 0.91973
5.16232 0.866011
5.18527 0.844475
5.20821 0.835233
5.23115 0.830638
5.2541 0.827586
5.27704 0.825868
5.29999 0.824775
5.32293 0.82407
5.34587 0.823955
5.36882 0.823862
5.39176 0.823505
5.4147 0.823586
5.43765 0.823553
5.46059 0.823456
5.48353 0.823648
5.50648 0.824272
5.52942 0.824979
5.55237 0.826225
5.57531 0.827716
5.59825 0.828667
5.6212 0.83043
5.64414 0.83275
5.66708 0.835911
5.69003 0.839254
5.71297 0.843446
5.73591 0.849188
5.75886 0.859835
5.7818 0.881474
5.80475 0.930584
5.82769 1.06248
5.85063 1.43962
5.87358 2.24645
5.89652 3.17138
5.91946 3.37311
5.94241 2.61997
5.96535 1.6943
5.9883 1.17079
6.01124 0.971718
6.03418 0.903695
6.05713 0.883569
6.08007 0.894758
6.10301 0.957203
6.12596 1.12217
6.1489 1.38614
6.17184 1.56989
6.19479 1.46753
6.21773 1.19676
6.24068 0.980119
6.26362 0.879345
6.28656 0.841993
6.30951 0.827205
6.33245 0.820453
6.35539 0.815742
6.37834 0.811331
6.40128 0.808248
6.42422 0.805807
6.44717 0.80416
6.47011 0.802615
6.49306 0.800527
6.516 0.798782
6.53894 0.797484
6.56189 0.796398
6.58483 0.796056
6.60777 0.795039
6.63072 0.794042
6.65366 0.793004
6.67661 0.791819
6.69955 0.791144
6.72249 0.790574
6.74544 0.790082
6.76838 0.789113
6.79132 0.788795
6.81427 0.78847
6.83721 0.788137
6.86015 0.788697
6.8831 0.789311
6.90604 0.789156
6.92899 0.789272
6.95193 0.790428
6.97487 0.792206
6.99782 0.795224
7.02076 0.801143
7.0437 0.818812
7.06665 0.868653
7.08959 0.976261
7.11253 1.11955
7.13548 1.16723
7.15842 1.06994
7.18137 0.931091
7.20431 0.847956
7.22725 0.815455
7.2502 0.803663
7.27314 0.799274
7.29608 0.797466
7.31903 0.797752
7.34197 0.798963
7.36491 0.799384
7.38786 0.80102
7.4108 0.802531
7.43375 0.803144
7.45669 0.80443
7.47963 0.806619
7.50258 0.809464
7.52552 0.812161
7.54846 0.814749
7.57141 0.818843
7.59435 0.82543
7.6173 0.833966
7.64024 0.846904
7.66318 0.873055
7.68613 0.940578
7.70907 1.12732
7.73201 1.5408
7.75496 2.07881
7.7779 2.20833
7.80084 1.81159
7.82379 1.31155
7.84673 1.0431
7.86968 0.964293
7.89262 0.997058
7.91556 1.18126
7.93851 1.5878
7.96145 2.02876
7.98439 2.04917
8.00734 1.62661
8.03028 1.19125
8.05322 0.974654
8.07617 0.895533
8.09911 0.864682
8.12206 0.851357
8.145 0.844567
8.16794 0.840441
8.19089 0.838648
8.21383 0.837599
8.23677 0.836046
8.25972 0.834492
8.28266 0.832576
8.3056 0.832465
8.32855 0.833179
8.35149 0.833652
8.37444 0.832995
8.39738 0.833851
8.42032 0.833991
8.44327 0.834763
8.46621 0.836676
8.48915 0.83744
8.5121 0.840094
8.53504 0.843121
8.55799 0.845421
8.58093 0.850495
8.60387 0.859937
8.62682 0.879025
8.64976 0.928427
8.6727 1.0658
8.69565 1.36952
8.71859 1.76303
8.74153 1.85973
8.76448 1.54992
8.78742 1.17816
8.81037 0.976939
8.83331 0.901782
8.85625 0.874241
8.8792 0.862794
8.90214 0.857185
8.92508 0.853903
8.94803 0.852024
8.97097 0.852065
8.99391 0.85133
9.01686 0.849906
9.0398 0.850499
9.06275 0.853125
9.08569 0.854964
9.10863 0.85797
9.13158 0.867372
9.15452 0.885858
9.17746 0.931805
9.20041 1.06302
9.22335 1.37033
9.24629 1.80459
9.26924 1.96787
9.29218 1.66635
9.31513 1.24483
9.33807 1.00173
9.36101 0.907968
9.38396 0.872934
9.4069 0.857607
9.42984 0.84992
9.45279 0.846543
9.47573 0.843546
9.49868 0.842076
9.52162 0.840825
9.54456 0.838924
9.56751 0.836842
9.59045 0.835017
9.61339 0.833926
9.63634 0.833593
9.65928 0.834711
9.68222 0.83539
9.70517 0.835563
9.72811 0.835434
9.75106 0.834524
9.774 0.834422
9.79694 0.835088
9.81989 0.836483
9.84283 0.837916
9.86577 0.838492
9.88872 0.840467
9.91166 0.843204
9.9346 0.846132
9.95755 0.84986
9.98049 0.856746
10.0034 0.873254
10.0264 0.918793
10.0493 1.014
10.0723 1.12966
10.0952 1.15606
10.1182 1.06075
10.1411 0.953559
10.164 0.898005
10.187 0.876616
10.2099 0.870602
10.2329 0.869903
10.2558 0.869841
10.2788 0.870629
10.3017 0.872896
10.3246 0.87489
10.3476 0.878145
10.3705 0.883372
10.3935 0.890036
10.4164 0.901782
10.4394 0.923522
10.4623 0.974818
10.4853 1.1148
10.5082 1.44114
10.5311 1.90861
10.5541 2.11061
10.577 1.78844
10.6 1.35289
10.6229 1.13975
10.6459 1.16006
10.6688 1.35817
10.6917 1.57334
10.7147 1.53038
10.7376 1.27023
10.7606 1.05306
10.7835 0.954383
10.8065 0.918005
10.8294 0.903297
10.8524 0.895713
10.8753 0.889382
10.8982 0.885976
10.9212 0.882281
10.9441 0.880446
10.9671 0.878907
10.99 0.877142
11.013 0.87592
11.0359 0.876125
11.0588 0.876084
11.0818 0.875705
11.1047 0.875956
11.1277 0.876659
11.1506 0.879924
11.1736 0.888408
11.1965 0.912611
11.2194 0.978398
11.2424 1.11987
11.2653 1.28659
11.2883 1.30743
11.3112 1.1573
11.3342 1.00121
11.3571 0.920339
11.3801 0.890268
11.403 0.879271
11.4259 0.875159
11.4489 0.872383
11.4718 0.871196
11.4948 0.87216
11.5177 0.874252
11.5407 0.877139
11.5636 0.880882
11.5865 0.887945
11.6095 0.907666
11.6324 0.960071
11.6554 1.08127
11.6783 1.24178
11.7013 1.29285
11.7242 1.17774
11.7472 1.04695
11.7701 1.01533
11.793 1.09237
11.816 1.21471
11.8389 1.23699
11.8619 1.11949
11.8848 0.990159
11.9078 0.919963
11.9307 0.890628
11.9536 0.878668
11.9766 0.874448
11.9995 0.871901
12.0225 0.870025
12.0454 0.870061
12.0684 0.869072
12.0913 0.868748
12.1143 0.86874
12.1372 0.866762
12.1601 0.866384
12.1831 0.869355
12.206 0.870287
12.229 0.871272
12.2519 0.875334
12.2749 0.882989
12.2978 0.898425
12.3207 0.930738
12.3437 0.970314
12.3666 0.977781
12.3896 0.94483
12.4125 0.90881
12.4355 0.89084
12.4584 0.88472
12.4814 0.884322
12.5043 0.884268
12.5272 0.887302
12.5502 0.891576
12.5731 0.894661
12.5961 0.899837
12.619 0.908803
12.642 0.929408
12.6649 0.982619
12.6878 1.10801
12.7108 1.32807
12.7337 1.5046
12.7567 1.4415
12.7796 1.22818
12.8026 1.09897
12.8255 1.11182
12.8484 1.1917
12.8714 1.20183
12.8943 1.10592
12.9173 1.00101
12.9402 0.94639
12.9632 0.92642
12.9861 0.918884
13.0091 0.914791
13.032 0.912683
13.0549 0.912305
13.0779 0.910445
13.1008 0.911312
13.1238 0.913997
13.1467 0.915013
13.1697 0.916027
13.1926 0.919246
13.2155 0.925272
13.2385 0.934716
13.2614 0.956443
13.2844 1.01656
13.3073 1.14742
13.3303 1.33402
13.3532 1.41266
13.3762 1.28839
13.3991 1.10765
13.422 1.00045
13.445 0.959243
13.4679 0.944784
13.4909 0.939932
13.5138 0.938466
13.5368 0.937351
13.5597 0.93954
13.5826 0.94742
13.6056 0.96899
13.6285 1.02285
13.6515 1.15568
13.6744 1.39165
13.6974 1.57581
13.7203 1.50578
13.7433 1.26609
13.7662 1.07377
13.7891 0.98275
13.8121 0.946652
13.835 0.934326
13.858 0.929791
13.8809 0.925661
13.9039 0.922542
13.9268 0.917846
13.9497 0.916326
13.9727 0.915472
13.9956 0.913215
14.0186 0.912513
14.0415 0.911525
14.0645 0.910498
14.0874 0.909539
14.1104 0.908772
14.1333 0.908369
14.1562 0.90781
14.1792 0.909428
14.2021 0.913627
14.2251 0.923478
14.248 0.938098
14.271 0.946343
14.2939 0.941389
14.3168 0.928576
14.3398 0.918477
14.3627 0.911779
14.3857 0.91236
14.4086 0.911987
14.4316 0.912494
14.4545 0.913836
14.4774 0.917132
14.5004 0.923158
14.5233 0.937705
14.5463 0.965741
14.5692 1.01831
14.5922 1.07621
14.6151 1.09218
14.6381 1.07348
14.661 1.08153
14.6839 1.15203
14.7069 1.2231
14.7298 1.19822
14.7528 1.09368
14.7757 1.00063
14.7987 0.954038
14.8216 0.935747
14.8445 0.929298
14.8675 0.927504
14.8904 0.925248
14.9134 0.925252
14.9363 0.926029
14.9593 0.927806
14.9822 0.927928
15.0052 0.928089
15.0281 0.933041
15.051 0.943991
15.074 0.970015
15.0969 1.02237
15.1199 1.09084
15.1428 1.12432
15.1658 1.0876
15.1887 1.01769
15.2116 0.970722
15.2346 0.948609
15.2575 0.940696
15.2805 0.940651
15.3034 0.941599
15.3264 0.945994
15.3493 0.953581
15.3723 0.975501
15.3952 1.02748
15.4181 1.11735
15.4411 1.21235
15.464 1.22697
15.487 1.16093
15.5099 1.09732
15.5329 1.07812
15.5558 1.07465
15.5787 1.04703
15.6017 1.0055
15.6246 0.972329
15.6476 0.954059
15.6705 0.947757
15.6935 0.944349
15.7164 0.941619
15.7394 0.942465
15.7623 0.94363
15.7852 0.942554
15.8082 0.939608
15.8311 0.939936
15.8541 0.944675
15.877 0.953355
15.9 0.968449
15.9229 0.994181
15.9458 1.02313
15.9688 1.03364
15.9917 1.01429
16.0147 0.983898
16.0376 0.963902
16.0606 0.955306
16.0835 0.954486
16.1064 0.955541
16.1294 0.958922
16.1523 0.967325
16.1753 0.984996
16.1982 1.03318
16.2212 1.11786
16.2441 1.20376
16.2671 1.23017
16.29 1.19571
16.3129 1.15555
16.3359 1.14651
16.3588 1.14349
16.3818 1.10583
16.4047 1.04273
16.4277 0.994071
16.4506 0.971037
16.4735 0.959107
16.4965 0.951949
16.5194 0.947795
16.5424 0.946486
16.5653 0.94594
16.5883 0.946252
16.6112 0.946613
16.6342 0.945542
16.6571 0.952074
16.68 0.963613
16.703 0.986754
16.7259 1.00904
16.7489 1.01781
16.7718 1.00514
16.7948 0.97966
16.8177 0.958191
16.8406 0.948261
16.8636 0.944497
16.8865 0.946407
16.9095 0.946435
16.9324 0.952771
16.9554 0.970479
16.9783 1.00461
17.0013 1.0446
17.0242 1.06903
17.0471 1.05715
17.0701 1.01812
17.093 0.980531
17.116 0.957784
17.1389 0.946371
17.1619 0.94368
17.1848 0.943885
17.2077 0.942133
17.2307 0.942064
17.2536 0.941658
17.2766 0.941239
17.2995 0.939844
17.3225 0.940247
17.3454 0.941282
17.3684 0.945794
17.3913 0.950033
17.4142 0.957514
17.4372 0.971564
17.4601 0.990251
17.4831 1.00334
17.506 1.00155
17.529 0.988523
17.5519 0.973105
17.5748 0.964044
17.5978 0.95962
17.6207 0.960379
17.6437 0.966693
17.6666 0.975486
17.6896 0.999846
17.7125 1.04107
17.7354 1.0901
17.7584 1.12327
17.7813 1.1247
17.8043 1.10243
17.8272 1.07187
17.8502 1.04956
17.8731 1.03166
17.8961 1.00875
17.919 0.990311
17.9419 0.97821
17.9649 0.971453
17.9878 0.970541
18.0108 0.970343
18.0337 0.969467
18.0567 0.972671
18.0796 0.975784
18.1025 0.981336
18.1255 0.996412
18.1484 1.02597
18.1714 1.06346
18.1943 1.09082
18.2173 1.09419
18.2402 1.07108
18.2632 1.0342
18.2861 1.00445
18.309 0.989209
18.332 0.984058
18.3549 0.985881
18.3779 0.993595
18.4008 1.01344
18.4238 1.04587
18.4467 1.07739
18.4696 1.0988
18.4926 1.09985
18.5155 1.08432
18.5385 1.06167
18.5614 1.03874
18.5844 1.01822
18.6073 1.00146
18.6303 0.987282
18.6532 0.97561
18.6761 0.970278
18.6991 0.96886
18.722 0.968017
18.745 0.967392
18.7679 0.966253
18.7909 0.96541
18.8138 0.966593
18.8367 0.964216
18.8597 0.963275
18.8826 0.964662
18.9056 0.965441
18.9285 0.967147
18.9515 0.97036
18.9744 0.969916
18.9974 0.969666
19.0203 0.972081
19.0432 0.975708
19.0662 0.984264
19.0891 1.001
19.1121 1.02133
19.135 1.04108
19.158 1.06052
19.1809 1.0749
19.2038 1.07935
19.2268 1.07453
19.2497 1.06187
19.2727 1.03713
19.2956 1.00877
19.3186 0.988656
19.3415 0.978983
19.3644 0.974284
19.3874 0.969898
19.4103 0.970153
19.4333 0.972887
19.4562 0.976402
19.4792 0.981997
19.5021 0.993699
19.5251 1.00482
19.548 1.01118
19.5709 1.01258
19.5939 1.00691
19.6168 0.993154
19.6398 0.982355
19.6627 0.973398
19.6857 0.97212
19.7086 0.974634
19.7315 0.981929
19.7545 0.992871
19.7774 1.00201
19.8004 1.00676
19.8233 1.00731
19.8463 0.998361
19.8692 0.986854
19.8922 0.975648
19.9151 0.970461
19.938 0.969079
19.961 0.966614
19.9839 0.96453
20.0069 0.96357
20.0298 0.962141
20.0528 0.962811
20.0757 0.964921
20.0986 0.966331
20.1216 0.966141
20.1445 0.972363
20.1675 0.974643
20.1904 0.976088
20.2134 0.976446
20.2363 0.97814
20.2593 0.980595
20.2822 0.980134
20.3051 0.981011
20.3281 0.987172
20.351 0.997881
20.374 1.01718
20.3969 1.03935
20.4199 1.06108
20.4428 1.07958
20.4657 1.08671
20.4887 1.07799
20.5116 1.05756
20.5346 1.03652
20.5575 1.01988
20.5805 1.00737
20.6034 0.994395
20.6264 0.986935
20.6493 0.982668
20.6722 0.980795
20.6952 0.982621
20.7181 0.984922
20.7411 0.991146
20.764 0.998129
20.787 1.00728
20.8099 1.00987
20.8328 1.0112
20.8558 1.01224
20.8787 1.00619
20.9017 0.997114
20.9246 0.992815
20.9476 0.993069
20.9705 0.99737
20.9934 1.00864
21.0164 1.02145
21.0393 1.02752
21.0623 1.03568
21.0852 1.04242
21.1082 1.04057
21.1311 1.02762
21.1541 1.018
21.177 1.01083
21.1999 1.00235
21.2229 0.992212
21.2458 0.986941
21.2688 0.983067
21.2917 0.983295
21.3147 0.986126
21.3376 0.982213
21.3605 0.988154
21.3835 0.990947
21.4064 0.993213
21.4294 0.9938
21.4523 0.994262
21.4753 0.997862
21.4982 0.996883
21.5212 0.991385
21.5441 0.986481
21.567 0.986224
21.59 0.994828
21.6129 0.999789
21.6359 1.00414
21.6588 1.00704
21.6818 1.01183
21.7047 1.01447
21.7276 1.0086
21.7506 1.00171
21.7735 0.993571
21.7965 0.989753
21.8194 0.986825
21.8424 0.983847
21.8653 0.985052
21.8883 0.987022
21.9112 0.986007
21.9341 0.991488
21.9571 1.00086
21.98 1.00794
22.003 1.00889
22.0259 1.00919
22.0489 1.01059
22.0718 1.01037
22.0947 1.00729
22.1177 1.0027
22.1406 1.00207
22.1636 1.0045
22.1865 1.01225
22.2095 1.01691
22.2324 1.01772
22.2554 1.01688
22.2783 1.01682
22.3012 1.01335
22.3242 1.00254
22.3471 0.994644
22.3701 0.987413
22.393 0.986411
22.416 0.988945
22.4389 0.985352
22.4618 0.988067
22.4848 0.984339
22.5077 0.986116
22.5307 0.987958
22.5536 0.991567
22.5766 0.99147
22.5995 0.991219
22.6224 0.990993
22.6454 0.989931
22.6683 0.990655
22.6913 0.990988
22.7142 0.991197
22.7372 0.993107
22.7601 0.994572
22.7831 1.00018
22.806 1.00847
22.8289 1.01425
22.8519 1.0159
22.8748 1.01432
22.8978 1.01385
22.9207 1.0136
22.9437 1.00889
22.9666 1.00164
22.9895 0.993494
23.0125 0.988854
23.0354 0.991604
23.0584 0.993743
23.0813 0.994231
23.1043 0.994407
23.1272 0.994753
23.1502 0.99599
23.1731 1.0006
23.196 1.00141
23.219 1.00163
23.2419 0.999765
23.2649 0.999738
23.2878 1.00346
23.3108 1.00979
23.3337 1.01301
23.3566 1.01428
23.3796 1.01517
23.4025 1.01743
23.4255 1.01633
23.4484 1.01187
23.4714 1.00169
23.4943 0.993573
23.5173 0.989215
23.5402 0.986804
23.5631 0.985665
23.5861 0.985448
23.609 0.989047
23.632 0.988156
23.6549 0.989517
23.6779 0.992175
23.7008 0.992569
23.7237 0.991903
23.7467 0.99121
23.7696 0.992983
23.7926 0.996974
23.8155 1.00097
23.8385 1.00536
23.8614 1.01139
23.8844 1.01525
23.9073 1.01617
23.9302 1.01492
23.9532 1.0166
23.9761 1.01894
23.9991 1.01075
