# xPDFsuite Configuration #
[PDF]
wavelength = 0.1
dataformat = QA
inputfile = C_Tatania2-41.5-average.chi
backgroundfile = C_Tatania4-0.0-average.chi
mode = xray
bgscale = 0.976844250352
composition = TiO2
outputtype = iq
qmaxinst = 22.0
qmin = 0.0
qmax = 13.3298
rmax = 60.0
rmin = 0.0
rstep = 0.01
rpoly = 1.68

[Misc]
inputdir = /Users/sst/PycharmProjects/pdf-data-reduction-tutorial/notebooks/data/chi_bkgsub_false
savedir = /Users/sst/PycharmProjects/pdf-data-reduction-tutorial/notebooks/data/processed
backgroundfilefull = /Users/sst/PycharmProjects/pdf-data-reduction-tutorial/notebooks/data/chi_bkgsub_false/C_Tatania4-0.0-average.chi

#### start data
#S 1
#L Q($\AA^{-1}$)  intensity(a.u.)
0.0219978 -0.824158
0.0447806 -0.486926
0.0675634 0.417088
0.0903462 -0.197957
0.113129 -0.293922
0.135912 -0.379156
0.158695 -0.790489
0.181477 -0.0878182
0.20426 0.341287
0.227043 2.31117
0.249826 2.38276
0.272609 4.57642
0.295391 21.6352
0.318174 31.8498
0.340957 18.5517
0.36374 7.59782
0.386523 -29.8122
0.409305 13.0827
0.432088 18.4285
0.454871 5.88124
0.477654 5.20552
0.500436 3.79242
0.523219 3.31948
0.546002 5.05324
0.568785 2.43564
0.591568 -16.1053
0.61435 -7.65358
0.637133 -4.86468
0.659916 -3.8986
0.682699 -0.28122
0.705482 -0.157171
0.728264 2.95768
0.751047 6.49268
0.77383 8.44123
0.796613 8.78579
0.819396 9.33648
0.842178 9.03721
0.864961 8.5058
0.887744 8.5246
0.910527 9.19803
0.93331 9.55659
0.956092 9.88866
0.978875 10.0017
1.00166 10.5677
1.02444 11.1186
1.04722 11.2139
1.07001 10.924
1.09279 11.784
1.11557 12.6088
1.13835 13.5612
1.16114 14.3652
1.18392 15.5151
1.2067 16.4766
1.22949 18.281
1.25227 19.5867
1.27505 20.86
1.29783 21.9225
1.32062 22.3129
1.3434 23.9841
1.36618 25.4559
1.38897 26.5286
1.41175 27.588
1.43453 28.0866
1.45731 28.1974
1.4801 28.5756
1.50288 29.9095
1.52566 31.9619
1.54844 32.7414
1.57123 32.7065
1.59401 32.8578
1.61679 33.4881
1.63958 34.1423
1.66236 35.7202
1.68514 38.8076
1.70792 44.5672
1.73071 52.713
1.75349 61.135
1.77627 65.0249
1.79906 62.289
1.82184 54.2118
1.84462 44.1429
1.8674 36.2205
1.89019 30.9555
1.91297 27.7028
1.93575 25.1464
1.95854 23.4765
1.98132 22.2099
2.0041 21.365
2.02688 20.5841
2.04967 19.6608
2.07245 18.7273
2.09523 17.817
2.11801 16.6949
2.1408 15.387
2.16358 14.3609
2.18636 13.9422
2.20915 13.6524
2.23193 13.8337
2.25471 14.0985
2.27749 13.8321
2.30028 13.3183
2.32306 12.6027
2.34584 11.8287
2.36863 11.1251
2.39141 10.2625
2.41419 9.51838
2.43697 9.30919
2.45976 9.15138
2.48254 8.65474
2.50532 8.71812
2.52811 9.28899
2.55089 10.3253
2.57367 11.8332
2.59645 13.745
2.61924 15.9019
2.64202 16.7293
2.6648 15.8017
2.68758 13.9299
2.71037 12.0356
2.73315 10.8427
2.75593 10.19
2.77872 9.8335
2.8015 9.71206
2.82428 10.2255
2.84706 10.9767
2.86985 9.11555
2.89263 8.02002
2.91541 7.42349
2.9382 7.51724
2.96098 7.53269
2.98376 6.8107
3.00654 5.83394
3.02933 4.95552
3.05211 4.99163
3.07489 5.80774
3.09767 6.74186
3.12046 7.55673
3.14324 8.02068
3.16602 8.14487
3.18881 8.47939
3.21159 9.78863
3.23437 11.8794
3.25715 14.7133
3.27994 17.9131
3.30272 19.5054
3.3255 18.3853
3.34829 14.9848
3.37107 11.5346
3.39385 9.72094
3.41663 8.89549
3.43942 8.49575
3.4622 8.60106
3.48498 8.57049
3.50777 7.83615
3.53055 7.60024
3.55333 8.02428
3.57611 9.24894
3.5989 10.7442
3.62168 12.1876
3.64446 14.226
3.66724 16.611
3.69003 18.8039
3.71281 20.0256
3.73559 20.1148
3.75838 19.0667
3.78116 17.1195
3.80394 15.0214
3.82672 13.4326
3.84951 12.5353
3.87229 12.0157
3.89507 11.4282
3.91786 10.9938
3.94064 10.7261
3.96342 10.2183
3.9862 10.0189
4.00899 9.97979
4.03177 10.4931
4.05455 10.7732
4.07733 10.8631
4.10012 11.4281
4.1229 11.7298
4.14568 12.3383
4.16847 13.5298
4.19125 14.9014
4.21403 15.9046
4.23681 16.0995
4.2596 15.048
4.28238 13.3773
4.30516 12.0665
4.32795 10.9661
4.35073 9.81589
4.37351 8.91105
4.39629 8.56177
4.41908 8.57145
4.44186 8.51556
4.46464 8.28571
4.48743 8.75964
4.51021 7.94888
4.53299 7.66436
4.55577 8.29236
4.57856 9.54215
4.60134 10.5277
4.62412 10.9687
4.6469 11.3503
4.66969 11.8902
4.69247 10.2038
4.71525 8.69439
4.73804 7.47749
4.76082 6.64868
4.7836 6.34094
4.80638 6.33405
4.82917 7.18411
4.85195 6.95554
4.87473 7.14162
4.89752 7.69562
4.9203 8.46008
4.94308 9.17191
4.96586 9.35411
4.98865 9.37314
5.01143 9.25623
5.03421 7.85114
5.057 7.17533
5.07978 6.98113
5.10256 5.94797
5.12534 5.34364
5.14813 5.21587
5.17091 5.02272
5.19369 4.90782
5.21647 4.66354
5.23926 4.88915
5.26204 5.22674
5.28482 5.13604
5.30761 5.30818
5.33039 5.59679
5.35317 6.12568
5.37595 6.17372
5.39874 5.87191
5.42152 5.31541
5.4443 4.26984
5.46709 3.47948
5.48987 2.91409
5.51265 2.34978
5.53543 2.22531
5.55822 1.97376
5.581 1.49585
5.60378 1.41258
5.62656 1.35319
5.64935 1.5938
5.67213 1.86989
5.69491 1.88388
5.7177 1.90994
5.74048 1.93776
5.76326 1.7188
5.78604 1.46796
5.80883 1.12506
5.83161 1.22146
5.85439 1.65588
5.87718 2.25846
5.89996 3.14121
5.92274 3.82464
5.94552 3.93742
5.96831 4.37243
5.99109 4.5889
6.01387 4.11939
6.03666 3.5627
6.05944 3.33136
6.08222 3.028
6.105 3.08059
6.12779 3.04651
6.15057 3.07997
6.17335 3.51918
6.19613 3.35317
6.21892 3.05947
6.2417 3.09487
6.26448 2.98371
6.28727 2.54283
6.31005 2.40047
6.33283 2.47328
6.35561 2.56194
6.3784 2.2319
6.40118 2.28757
6.42396 2.22473
6.44675 2.04946
6.46953 2.16184
6.49231 2.18959
6.51509 2.45382
6.53788 2.98813
6.56066 3.11376
6.58344 3.09815
6.60622 3.1236
6.62901 3.05606
6.65179 3.15527
6.67457 2.91682
6.69736 2.56315
6.72014 2.36193
6.74292 2.50127
6.7657 2.65054
6.78849 2.84571
6.81127 3.23847
6.83405 3.63072
6.85684 3.53017
6.87962 3.2055
6.9024 2.94845
6.92518 2.95486
6.94797 3.23793
6.97075 3.64855
6.99353 4.08509
7.01632 4.1211
7.0391 3.75045
7.06188 3.49376
7.08466 3.44747
7.10745 3.20112
7.13023 3.21548
7.15301 3.28679
7.17579 3.10445
7.19858 2.78753
7.22136 2.38497
7.24414 2.23617
7.26693 2.21373
7.28971 2.28322
7.31249 2.22577
7.33527 2.42941
7.35806 2.51045
7.38084 2.64951
7.40362 2.87035
7.42641 2.94957
7.44919 2.82438
7.47197 2.82205
7.49475 2.86372
7.51754 2.8379
7.54032 2.95274
7.5631 2.91767
7.58589 2.89125
7.60867 2.68573
7.63145 2.55918
7.65423 2.52138
7.67702 2.50913
7.6998 2.53851
7.72258 2.66714
7.74536 2.74261
7.76815 2.944
7.79093 3.00859
7.81371 2.93027
7.8365 2.95724
7.85928 2.85045
7.88206 2.71141
7.90484 2.48594
7.92763 2.37437
7.95041 2.29462
7.97319 2.40911
7.99598 2.34675
8.01876 2.20133
8.04154 2.30682
8.06432 2.1607
8.08711 1.94765
8.10989 1.91054
8.13267 1.66197
8.15545 1.494
8.17824 1.45982
8.20102 1.59397
8.2238 1.6798
8.24659 1.76849
8.26937 1.86112
8.29215 2.10448
8.31493 2.28082
8.33772 2.3456
8.3605 2.57942
8.38328 2.71286
8.40607 2.79504
8.42885 2.76913
8.45163 2.72434
8.47441 2.54908
8.4972 2.32969
8.51998 2.18939
8.54276 2.09494
8.56555 1.82624
8.58833 1.59585
8.61111 1.4578
8.63389 1.37764
8.65668 1.36982
8.67946 1.42596
8.70224 1.49358
8.72502 1.35129
8.74781 1.43935
8.77059 1.42202
8.79337 1.21489
8.81616 1.22334
8.83894 1.35575
8.86172 1.61043
8.8845 1.68027
8.90729 1.64579
8.93007 1.63811
8.95285 1.59397
8.97564 1.61765
8.99842 1.53806
9.0212 1.52109
9.04398 1.40683
9.06677 1.38639
9.08955 1.39695
9.11233 1.10875
9.13511 0.899618
9.1579 0.873746
9.18068 0.996
9.20346 0.808298
9.22625 0.703007
9.24903 0.70374
9.27181 0.745496
9.29459 0.822669
9.31738 0.960398
9.34016 1.09655
9.36294 1.19742
9.38573 1.24889
9.40851 1.35095
9.43129 1.26763
9.45407 1.14961
9.47686 1.22526
9.49964 1.10974
9.52242 1.05622
9.54521 1.05252
9.56799 1.06644
9.59077 1.04554
9.61355 0.963779
9.63634 0.854976
9.65912 0.845735
9.6819 0.813131
9.70468 0.855033
9.72747 0.97371
9.75025 0.944097
9.77303 0.852496
9.79582 0.909371
9.8186 0.85683
9.84138 0.928462
9.86416 0.957006
9.88695 0.897232
9.90973 1.01475
9.93251 0.952752
9.9553 0.917266
9.97808 0.9102
10.0009 0.905136
10.0236 0.984597
10.0464 1.17274
10.0692 1.22652
10.092 1.18358
10.1148 1.10642
10.1376 1.14625
10.1603 1.09443
10.1831 1.13694
10.2059 1.09225
10.2287 1.07799
10.2515 1.13175
10.2743 1.1547
10.297 1.0484
10.3198 1.09438
10.3426 1.12494
10.3654 1.1828
10.3882 1.15658
10.411 1.2708
10.4337 1.35155
10.4565 1.34462
10.4793 1.24848
10.5021 1.15085
10.5249 1.16095
10.5476 1.3102
10.5704 1.42349
10.5932 1.47367
10.616 1.50273
10.6388 1.5906
10.6616 1.64842
10.6843 1.61804
10.7071 1.53203
10.7299 1.46525
10.7527 1.47195
10.7755 1.43867
10.7983 1.38003
10.821 1.31183
10.8438 1.29859
10.8666 1.27511
10.8894 1.13483
10.9122 1.03503
10.935 0.946187
10.9577 0.955029
10.9805 0.984039
11.0033 1.10904
11.0261 1.27288
11.0489 1.17052
11.0717 1.11928
11.0944 1.21988
11.1172 1.1453
11.14 1.08672
11.1628 1.0561
11.1856 1.0508
11.2083 0.999978
11.2311 0.968945
11.2539 0.946563
11.2767 1.02386
11.2995 1.04762
11.3223 0.916357
11.345 0.965647
11.3678 0.893374
11.3906 0.871828
11.4134 0.953958
11.4362 1.03224
11.459 1.03391
11.4817 0.932459
11.5045 0.847915
11.5273 0.988712
11.5501 1.1331
11.5729 1.20251
11.5957 1.18112
11.6184 1.14692
11.6412 1.21279
11.664 1.22724
11.6868 1.33719
11.7096 1.38505
11.7324 1.44165
11.7551 1.39395
11.7779 1.25879
11.8007 1.12604
11.8235 1.09745
11.8463 1.16188
11.8691 1.12778
11.8918 1.15922
11.9146 1.17785
11.9374 1.17105
11.9602 1.21154
11.983 1.14741
12.0057 1.13599
12.0285 1.1475
12.0513 1.20194
12.0741 1.21244
12.0969 1.21603
12.1197 1.18941
12.1424 1.13614
12.1652 1.09794
12.188 1.10719
12.2108 1.05836
12.2336 1.06813
12.2564 1.06187
12.2791 1.02648
12.3019 1.06474
12.3247 1.11513
12.3475 1.08935
12.3703 1.09343
12.3931 1.08677
12.4158 1.03732
12.4386 0.88967
12.4614 0.892549
12.4842 1.05821
12.507 1.14148
12.5298 1.16266
12.5525 1.03034
12.5753 0.915702
12.5981 0.872176
12.6209 0.876259
12.6437 0.87468
12.6664 0.795062
12.6892 0.690525
12.712 0.58159
12.7348 0.517443
12.7576 0.591757
12.7804 0.533257
12.8031 0.608525
12.8259 0.621322
12.8487 0.607266
12.8715 0.631173
12.8943 0.621461
12.9171 0.625211
12.9398 0.609967
12.9626 0.61323
12.9854 0.577989
13.0082 0.550248
13.031 0.541507
13.0538 0.564222
13.0765 0.533888
13.0993 0.620349
13.1221 0.57957
13.1449 0.636411
13.1677 0.560044
13.1905 0.562388
13.2132 0.689886
13.236 0.748477
13.2588 0.801392
13.2816 0.776613
13.3044 0.786094
13.3271 0.856072
13.3499 0.853225
13.3727 0.818649
13.3955 0.755099
13.4183 0.80658
13.4411 0.806299
13.4638 0.762795
13.4866 0.680574
13.5094 0.561397
13.5322 0.499384
13.555 0.634676
13.5778 0.60838
13.6005 0.580023
13.6233 0.641001
13.6461 0.63957
13.6689 0.645171
13.6917 0.695166
13.7145 0.643201
13.7372 0.627042
13.76 0.624021
13.7828 0.722785
13.8056 0.745913
13.8284 0.687978
13.8512 0.65049
13.8739 0.520693
13.8967 0.600508
13.9195 0.636988
13.9423 0.646817
13.9651 0.720117
13.9878 0.706586
14.0106 0.735968
14.0334 0.773084
14.0562 0.664213
14.079 0.609981
14.1018 0.623565
14.1245 0.638606
14.1473 0.684088
14.1701 0.622464
14.1929 0.727252
14.2157 0.806246
14.2385 0.78108
14.2612 0.674251
14.284 0.658765
14.3068 0.666896
14.3296 0.686674
14.3524 0.617402
14.3752 0.596404
14.3979 0.66239
14.4207 0.724245
14.4435 0.728759
14.4663 0.756862
14.4891 0.740669
14.5119 0.68076
14.5346 0.593015
14.5574 0.68406
14.5802 0.63946
14.603 0.652765
14.6258 0.674408
14.6486 0.548968
14.6713 0.542089
14.6941 0.55115
14.7169 0.626067
14.7397 0.644916
14.7625 0.584945
14.7852 0.642671
14.808 0.689733
14.8308 0.706754
14.8536 0.667853
14.8764 0.591268
14.8992 0.556711
14.9219 0.552569
14.9447 0.524941
14.9675 0.596797
14.9903 0.672747
15.0131 0.671711
15.0359 0.656664
15.0586 0.615665
15.0814 0.603164
15.1042 0.578562
15.127 0.563158
15.1498 0.516787
15.1726 0.537975
15.1953 0.581686
15.2181 0.538967
15.2409 0.542909
15.2637 0.538552
15.2865 0.540883
15.3093 0.47843
15.332 0.460379
15.3548 0.452494
15.3776 0.541111
15.4004 0.465587
15.4232 0.407915
15.4459 0.416763
15.4687 0.385463
15.4915 0.405013
15.5143 0.45522
15.5371 0.507961
15.5599 0.437931
15.5826 0.431385
15.6054 0.416072
15.6282 0.424162
15.651 0.416839
15.6738 0.470603
15.6966 0.412773
15.7193 0.422587
15.7421 0.428665
15.7649 0.385824
15.7877 0.38043
15.8105 0.331364
15.8333 0.456143
15.856 0.456144
15.8788 0.47186
15.9016 0.492631
15.9244 0.464744
15.9472 0.575451
15.97 0.520363
15.9927 0.396394
16.0155 0.370887
16.0383 0.385061
16.0611 0.475416
16.0839 0.463847
16.1066 0.55921
16.1294 0.529375
16.1522 0.465335
16.175 0.420807
16.1978 0.364172
16.2206 0.362061
16.2433 0.365988
16.2661 0.523038
16.2889 0.587741
16.3117 0.557776
16.3345 0.398717
16.3573 0.40272
16.38 0.400718
16.4028 0.458884
16.4256 0.431915
16.4484 0.382811
16.4712 0.41726
16.494 0.357592
16.5167 0.408353
16.5395 0.344403
16.5623 0.425686
16.5851 0.422279
16.6079 0.405555
16.6307 0.397956
16.6534 0.453129
16.6762 0.416598
16.699 0.411764
16.7218 0.508278
16.7446 0.453487
16.7674 0.415552
16.7901 0.450029
16.8129 0.501008
16.8357 0.432192
16.8585 0.4597
16.8813 0.406365
16.904 0.403804
16.9268 0.312727
16.9496 0.263916
16.9724 0.220385
16.9952 0.293466
17.018 0.276496
17.0407 0.304369
17.0635 0.344745
17.0863 0.296201
17.1091 0.279745
17.1319 0.354617
17.1547 0.400486
17.1774 0.235665
17.2002 0.241437
17.223 0.281646
17.2458 0.295799
17.2686 0.293388
17.2914 0.294254
17.3141 0.319933
17.3369 0.261235
17.3597 0.245838
17.3825 0.232952
17.4053 0.284327
17.4281 0.310487
17.4508 0.377845
17.4736 0.309734
17.4964 0.295063
17.5192 0.303495
17.542 0.239945
17.5647 0.228392
17.5875 0.177255
17.6103 0.255057
17.6331 0.230896
17.6559 0.304401
17.6787 0.277947
17.7014 0.277929
17.7242 0.186291
17.747 0.197294
17.7698 0.283104
17.7926 0.291868
17.8154 0.326175
17.8381 0.354127
17.8609 0.3456
17.8837 0.378617
17.9065 0.31624
17.9293 0.302956
17.9521 0.28053
17.9748 0.280021
17.9976 0.355504
18.0204 0.260355
18.0432 0.293983
18.066 0.30026
18.0888 0.286884
18.1115 0.366604
18.1343 0.2816
18.1571 0.257946
18.1799 0.32433
18.2027 0.28432
18.2254 0.293241
18.2482 0.248852
18.271 0.290258
18.2938 0.219022
18.3166 0.25462
18.3394 0.263243
18.3621 0.248679
18.3849 0.24138
18.4077 0.277171
18.4305 0.251047
18.4533 0.250182
18.4761 0.293289
18.4988 0.278957
18.5216 0.273902
18.5444 0.26409
18.5672 0.302869
18.59 0.297765
18.6128 0.351822
18.6355 0.312886
18.6583 0.353673
18.6811 0.298202
18.7039 0.279825
18.7267 0.236811
18.7495 0.314544
18.7722 0.303222
18.795 0.31084
18.8178 0.312205
18.8406 0.242568
18.8634 0.195431
18.8862 0.159312
18.9089 0.225172
18.9317 0.325439
18.9545 0.312344
18.9773 0.232521
19.0001 0.332135
19.0228 0.32344
19.0456 0.283622
19.0684 0.25381
19.0912 0.221613
19.114 0.245279
19.1368 0.315111
19.1595 0.254654
19.1823 0.317312
19.2051 0.217372
19.2279 0.234712
19.2507 0.284405
19.2735 0.310578
19.2962 0.257873
19.319 0.221711
19.3418 0.247185
19.3646 0.284773
19.3874 0.207302
19.4102 0.224908
19.4329 0.23909
19.4557 0.254724
19.4785 0.219798
19.5013 0.248742
19.5241 0.279679
19.5469 0.260995
19.5696 0.255855
19.5924 0.274199
19.6152 0.195276
19.638 0.179092
19.6608 0.123741
19.6835 0.187615
19.7063 0.231348
19.7291 0.186393
19.7519 0.184987
19.7747 0.143221
19.7975 0.126553
19.8202 0.180064
19.843 0.178782
19.8658 0.132086
19.8886 0.152072
19.9114 0.187885
19.9342 0.181216
19.9569 0.150017
19.9797 0.146558
20.0025 0.231033
20.0253 0.232263
20.0481 0.204135
20.0709 0.197126
20.0936 0.181983
20.1164 0.204528
20.1392 0.204524
20.162 0.203896
20.1848 0.168757
20.2076 0.141881
20.2303 0.134467
20.2531 0.137932
20.2759 0.172489
20.2987 0.187471
20.3215 0.20218
20.3442 0.170083
20.367 0.112595
20.3898 0.0836913
20.4126 0.0888806
20.4354 0.136777
20.4582 0.137519
20.4809 0.132426
20.5037 0.170085
20.5265 0.0732435
20.5493 0.0839139
20.5721 0.124236
20.5949 0.127714
20.6176 0.0728795
20.6404 0.122346
20.6632 0.138766
20.686 0.148005
20.7088 0.109228
20.7316 0.124551
20.7543 0.0843703
20.7771 0.0444385
20.7999 0.0857255
20.8227 0.0281715
20.8455 0.054283
20.8683 0.049753
20.891 0.0990078
20.9138 0.0547579
20.9366 0.0568325
20.9594 0.0764929
20.9822 0.0674452
21.0049 0.0684344
21.0277 0.0424865
21.0505 0.0139677
21.0733 0.0397803
21.0961 0.0187902
21.1189 0.0489565
21.1416 0.0833856
21.1644 0.0750983
21.1872 0.024213
21.21 0.000511346
21.2328 -0.0448593
21.2556 0.0289818
21.2783 0.0497495
21.3011 0.0336885
21.3239 0.0383826
21.3467 0.0813772
21.3695 0.0519104
21.3923 0.0362525
21.415 0.06186
21.4378 0.101135
21.4606 0.0699767
21.4834 0.0511191
21.5062 0.0387651
21.529 -0.0248185
21.5517 -0.00092455
21.5745 0.0254076
21.5973 -0.0159952
21.6201 0.00270637
21.6429 0.00748872
21.6657 0.0430057
21.6884 0.00864658
21.7112 0.0315756
21.734 0.08011
21.7568 0.0456134
21.7796 0.0130134
21.8023 0.00602592
21.8251 -0.0158036
21.8479 0.0257203
21.8707 0.0635539
21.8935 0.0475659
21.9163 -0.0184038
21.939 0.0107903
21.9618 0.00325969
21.9846 -0.00417864
