# xPDFsuite Configuration #
[PDF]
wavelength = 0.1
dataformat = QA
inputfile = C_Tatania5-26.6-average.chi
backgroundfile = C_Tatania4-0.0-average.chi
mode = xray
bgscale = 0.987986559175
composition = TiO2
outputtype = iq
qmaxinst = 22.0
qmin = 0.0
qmax = 18.3634
rmax = 60.0
rmin = 0.0
rstep = 0.01
rpoly = 1.68

[Misc]
inputdir = /Users/sst/PycharmProjects/pdf-data-reduction-tutorial/notebooks/data/chi_bkgsub_false
savedir = /Users/sst/PycharmProjects/pdf-data-reduction-tutorial/notebooks/data/processed
backgroundfilefull = /Users/sst/PycharmProjects/pdf-data-reduction-tutorial/notebooks/data/chi_bkgsub_false/C_Tatania4-0.0-average.chi

#### start data
#S 1
#L Q($\AA^{-1}$)  intensity(a.u.)
0.0219978 0.256067
0.0447806 0.211116
0.0675634 1.50001
0.0903462 0.647475
0.113129 1.15783
0.135912 0.666712
0.158695 0.147156
0.181477 1.16362
0.20426 1.53551
0.227043 3.6186
0.249826 3.89683
0.272609 5.96592
0.295391 22.5291
0.318174 36.3877
0.340957 36.5545
0.36374 40.6363
0.386523 -2.7326
0.409305 32.0252
0.432088 32.9406
0.454871 17.4681
0.477654 17.6343
0.500436 17.4052
0.523219 17.6413
0.546002 19.5022
0.568785 16.504
0.591568 9.10909
0.61435 19.9214
0.637133 19.7472
0.659916 17.7369
0.682699 15.7069
0.705482 16.0384
0.728264 19.9815
0.751047 24.2502
0.77383 26.1563
0.796613 26.6093
0.819396 27.5833
0.842178 27.5899
0.864961 27.2282
0.887744 27.6147
0.910527 28.2676
0.93331 28.3089
0.956092 28.1241
0.978875 28.3131
1.00166 28.8397
1.02444 29.3505
1.04722 29.1724
1.07001 28.5473
1.09279 28.6803
1.11557 28.8217
1.13835 29.1371
1.16114 30.0069
1.18392 30.8979
1.2067 31.4675
1.22949 32.7404
1.25227 33.4784
1.27505 33.8639
1.29783 34.3933
1.32062 34.9329
1.3434 36.2627
1.36618 37.6018
1.38897 37.7464
1.41175 37.4157
1.43453 37.1502
1.45731 36.2183
1.4801 34.1663
1.50288 32.9945
1.52566 32.2369
1.54844 32.0598
1.57123 32.3218
1.59401 33.2168
1.61679 34.6639
1.63958 36.3837
1.66236 40.2378
1.68514 48.4988
1.70792 64.082
1.73071 86.6149
1.75349 110.529
1.77627 126.01
1.79906 124.269
1.82184 105.722
1.84462 78.6756
1.8674 54.0625
1.89019 36.8659
1.91297 26.3323
1.93575 20.2165
1.95854 16.4792
1.98132 14.1157
2.0041 12.4923
2.02688 11.1769
2.04967 9.52567
2.07245 7.61759
2.09523 3.32584
2.11801 -4.46091
2.1408 -10.4484
2.16358 -19.2444
2.18636 -19.0757
2.20915 -11.2694
2.23193 -4.24505
2.25471 -0.782952
2.27749 0.161925
2.30028 -0.605019
2.32306 -1.31588
2.34584 -2.26235
2.36863 -2.40449
2.39141 -2.91589
2.41419 -4.65115
2.43697 -8.41559
2.45976 -14.4807
2.48254 -19.0187
2.50532 -17.5036
2.52811 -9.5807
2.55089 0.552761
2.57367 9.49571
2.59645 17.221
2.61924 24.3346
2.64202 28.0291
2.6648 27.3935
2.68758 23.7307
2.71037 18.97
2.73315 14.9707
2.75593 11.9401
2.77872 9.7026
2.8015 8.6157
2.82428 8.86071
2.84706 9.75128
2.86985 7.86364
2.89263 6.18066
2.91541 4.56144
2.9382 4.06562
2.96098 3.8202
2.98376 2.87786
3.00654 1.62808
3.02933 0.7292
3.05211 0.34795
3.07489 1.07354
3.09767 2.28468
3.12046 2.64597
3.14324 2.3842
3.16602 2.32358
3.18881 3.44271
3.21159 7.07385
3.23437 13.2071
3.25715 21.3339
3.27994 30.2312
3.30272 36.1119
3.3255 36.3957
3.34829 30.818
3.37107 22.2807
3.39385 14.9449
3.41663 9.93521
3.43942 6.64504
3.4622 3.51746
3.48498 -0.348901
3.50777 -5.1714
3.53055 -7.82512
3.55333 -5.50904
3.57611 0.554655
3.5989 7.26592
3.62168 13.8476
3.64446 20.9209
3.66724 28.6691
3.69003 36.1958
3.71281 40.6997
3.73559 41.273
3.75838 38.813
3.78116 33.9324
3.80394 27.5344
3.82672 20.9389
3.84951 15.7896
3.87229 12.4896
3.89507 11.7427
3.91786 10.5566
3.94064 8.46356
3.96342 7.33756
3.9862 6.67491
4.00899 5.838
4.03177 5.45639
4.05455 4.56176
4.07733 3.4725
4.10012 1.50027
4.1229 -0.735851
4.14568 -0.135754
4.16847 4.32779
4.19125 11.0427
4.21403 17.5016
4.23681 20.5491
4.2596 20.9293
4.28238 18.0514
4.30516 13.8496
4.32795 9.95602
4.35073 6.76202
4.37351 4.49661
4.39629 3.15002
4.41908 2.24169
4.44186 1.86344
4.46464 1.64492
4.48743 1.84297
4.51021 1.63484
4.53299 2.3591
4.55577 3.99275
4.57856 6.48343
4.60134 8.84955
4.62412 10.2613
4.6469 11.0476
4.66969 11.9359
4.69247 10.2054
4.71525 8.06514
4.73804 5.74073
4.76082 3.72236
4.7836 2.62916
4.80638 2.24062
4.82917 2.62282
4.85195 2.52672
4.87473 3.48381
4.89752 5.07437
4.9203 7.10659
4.94308 9.39245
4.96586 10.7138
4.98865 10.2624
5.01143 8.36082
5.03421 6.28447
5.057 4.11422
5.07978 2.82135
5.10256 0.837467
5.12534 -0.269583
5.14813 -1.00636
5.17091 -1.5604
5.19369 -1.79596
5.21647 -1.99064
5.23926 -1.91325
5.26204 -1.50532
5.28482 -0.851812
5.30761 -0.198155
5.33039 0.823735
5.35317 2.17217
5.37595 3.21179
5.39874 2.9041
5.42152 1.19927
5.4443 -0.922396
5.46709 -2.72025
5.48987 -3.8485
5.51265 -4.83754
5.53543 -5.31688
5.55822 -5.95274
5.581 -6.78003
5.60378 -6.98942
5.62656 -6.58233
5.64935 -5.53548
5.67213 -5.02481
5.69491 -4.87628
5.7177 -4.50658
5.74048 -4.23955
5.76326 -4.21499
5.78604 -4.33355
5.80883 -4.29788
5.83161 -3.70358
5.85439 -3.06316
5.87718 -1.77978
5.89996 -0.211659
5.92274 1.32474
5.94552 2.49717
5.96831 3.76184
5.99109 4.28794
6.01387 4.09245
6.03666 2.92188
6.05944 1.68123
6.08222 0.631979
6.105 0.133959
6.12779 0.11752
6.15057 0.420925
6.17335 0.930082
6.19613 1.20853
6.21892 1.29934
6.2417 1.57658
6.26448 1.20017
6.28727 0.401876
6.31005 -0.173718
6.33283 -0.78671
6.35561 -1.05549
6.3784 -1.40005
6.40118 -1.60774
6.42396 -1.81626
6.44675 -1.96268
6.46953 -2.02719
6.49231 -1.88845
6.51509 -1.04821
6.53788 0.241442
6.56066 1.15501
6.58344 1.97383
6.60622 2.5677
6.62901 2.56181
6.65179 2.04815
6.67457 1.12969
6.69736 0.208518
6.72014 -0.389041
6.74292 -0.334609
6.7657 0.455831
6.78849 1.4976
6.81127 2.60201
6.83405 3.42824
6.85684 3.75872
6.87962 3.64604
6.9024 3.39431
6.92518 3.21678
6.94797 3.72546
6.97075 4.50726
6.99353 5.40327
7.01632 6.08131
7.0391 5.94885
7.06188 5.43402
7.08466 5.08188
7.10745 4.84329
7.13023 4.93518
7.15301 4.74778
7.17579 4.01917
7.19858 3.10787
7.22136 2.24653
7.24414 1.80172
7.26693 1.44065
7.28971 1.36916
7.31249 1.27447
7.33527 1.4969
7.35806 1.93016
7.38084 2.43954
7.40362 3.05923
7.42641 3.56619
7.44919 3.63476
7.47197 3.3835
7.49475 3.00485
7.51754 2.79199
7.54032 2.8291
7.5631 3.07129
7.58589 3.22138
7.60867 3.14039
7.63145 2.81701
7.65423 2.49202
7.67702 2.18861
7.6998 2.08096
7.72258 2.14644
7.74536 2.37776
7.76815 2.56098
7.79093 2.74736
7.81371 2.92479
7.8365 2.97291
7.85928 3.07554
7.88206 3.0153
7.90484 2.6257
7.92763 1.87028
7.95041 1.1902
7.97319 0.795597
7.99598 0.437994
8.01876 0.279204
8.04154 0.400702
8.06432 0.520331
8.08711 0.418251
8.10989 0.330626
8.13267 0.277905
8.15545 0.0175669
8.17824 -0.101474
8.20102 -0.106787
8.2238 0.0107302
8.24659 0.226612
8.26937 0.494515
8.29215 0.587685
8.31493 0.768199
8.33772 0.93891
8.3605 1.42963
8.38328 2.00829
8.40607 2.33788
8.42885 2.80682
8.45163 2.98632
8.47441 2.76113
8.4972 2.12335
8.51998 1.6435
8.54276 1.19218
8.56555 1.01085
8.58833 0.611233
8.61111 0.363765
8.63389 0.0226291
8.65668 -0.301262
8.67946 -0.470138
8.70224 -0.551806
8.72502 -0.818796
8.74781 -0.688679
8.77059 -0.580209
8.79337 -0.719588
8.81616 -0.645456
8.83894 -0.432377
8.86172 -0.012282
8.8845 0.242613
8.90729 0.539333
8.93007 0.839299
8.95285 0.835612
8.97564 0.747795
8.99842 0.504838
9.0212 0.234124
9.04398 0.0688802
9.06677 -0.017561
9.08955 -0.128034
9.11233 -0.398831
9.13511 -0.676663
9.1579 -0.839521
9.18068 -0.859421
9.20346 -1.01974
9.22625 -1.07537
9.24903 -1.0051
9.27181 -0.734701
9.29459 -0.537087
9.31738 -0.2253
9.34016 -0.0516941
9.36294 0.125168
9.38573 0.181274
9.40851 0.151236
9.43129 -0.0658446
9.45407 -0.322289
9.47686 -0.176923
9.49964 -0.0710679
9.52242 0.0831846
9.54521 0.142483
9.56799 0.0319732
9.59077 -0.0167416
9.61355 -0.0261252
9.63634 -0.177068
9.65912 -0.17693
9.6819 -0.313202
9.70468 -0.378165
9.72747 -0.202359
9.75025 -0.036798
9.77303 -0.319716
9.79582 -0.42461
9.8186 -0.598994
9.84138 -0.628773
9.86416 -0.579368
9.88695 -0.449724
9.90973 -0.21647
9.93251 -0.159064
9.9553 -0.100431
9.97808 -0.0345275
10.0009 0.0116221
10.0236 0.0740095
10.0464 0.190985
10.0692 0.334195
10.092 0.338123
10.1148 0.269307
10.1376 0.330569
10.1603 0.446644
10.1831 0.573932
10.2059 0.707675
10.2287 0.943129
10.2515 1.02453
10.2743 0.937501
10.297 0.793304
10.3198 0.746514
10.3426 0.663453
10.3654 0.702685
10.3882 0.768547
10.411 0.953496
10.4337 1.26333
10.4565 1.4962
10.4793 1.61761
10.5021 1.64883
10.5249 1.6924
10.5476 1.81579
10.5704 1.9654
10.5932 2.23305
10.616 2.40111
10.6388 2.52569
10.6616 2.51152
10.6843 2.3797
10.7071 2.27701
10.7299 2.19189
10.7527 2.20123
10.7755 2.11689
10.7983 1.96957
10.821 1.73679
10.8438 1.5955
10.8666 1.45116
10.8894 1.15279
10.9122 0.977263
10.935 0.902414
10.9577 0.811089
10.9805 0.85343
11.0033 0.970029
11.0261 1.14206
11.0489 1.23872
11.0717 1.3206
11.0944 1.39628
11.1172 1.18625
11.14 1.21083
11.1628 1.10738
11.1856 1.01437
11.2083 0.770514
11.2311 0.683544
11.2539 0.66349
11.2767 0.578702
11.2995 0.523833
11.3223 0.478301
11.345 0.54648
11.3678 0.547694
11.3906 0.495865
11.4134 0.494915
11.4362 0.609737
11.459 0.605834
11.4817 0.629015
11.5045 0.61926
11.5273 0.70356
11.5501 0.967053
11.5729 1.19028
11.5957 1.32807
11.6184 1.34774
11.6412 1.44723
11.664 1.5717
11.6868 1.66477
11.7096 1.67294
11.7324 1.60422
11.7551 1.60957
11.7779 1.41993
11.8007 1.21777
11.8235 1.10879
11.8463 1.09958
11.8691 1.16216
11.8918 1.15732
11.9146 1.1032
11.9374 1.15327
11.9602 1.32984
11.983 1.47264
12.0057 1.37938
12.0285 1.35912
12.0513 1.33163
12.0741 1.28787
12.0969 1.32382
12.1197 1.33792
12.1424 1.4952
12.1652 1.36149
12.188 1.28105
12.2108 1.32865
12.2336 1.41982
12.2564 1.14765
12.2791 1.04578
12.3019 1.08572
12.3247 1.07229
12.3475 1.03224
12.3703 1.15306
12.3931 0.978588
12.4158 0.888804
12.4386 0.82976
12.4614 0.818456
12.4842 0.923486
12.507 0.93137
12.5298 0.917184
12.5525 0.814834
12.5753 0.797301
12.5981 0.736522
12.6209 0.66727
12.6437 0.540903
12.6664 0.448513
12.6892 0.310273
12.712 0.223028
12.7348 0.231138
12.7576 0.288491
12.7804 0.208702
12.8031 0.241593
12.8259 0.243086
12.8487 0.265937
12.8715 0.305842
12.8943 0.359342
12.9171 0.335657
12.9398 0.356636
12.9626 0.395678
12.9854 0.382478
13.0082 0.342034
13.031 0.340612
13.0538 0.296683
13.0765 0.245333
13.0993 0.259811
13.1221 0.269636
13.1449 0.356545
13.1677 0.385896
13.1905 0.380426
13.2132 0.429255
13.236 0.478831
13.2588 0.583132
13.2816 0.573363
13.3044 0.674615
13.3271 0.783353
13.3499 0.866514
13.3727 0.867802
13.3955 0.89971
13.4183 0.889238
13.4411 0.848567
13.4638 0.768732
13.4866 0.786555
13.5094 0.687334
13.5322 0.622379
13.555 0.618057
13.5778 0.56739
13.6005 0.589929
13.6233 0.694439
13.6461 0.638405
13.6689 0.699116
13.6917 0.719319
13.7145 0.701866
13.7372 0.578103
13.76 0.523222
13.7828 0.566871
13.8056 0.604813
13.8284 0.619652
13.8512 0.635307
13.8739 0.573996
13.8967 0.566921
13.9195 0.577471
13.9423 0.715488
13.9651 0.760743
13.9878 0.792408
14.0106 0.863549
14.0334 0.880081
14.0562 0.803586
14.079 0.725155
14.1018 0.694444
14.1245 0.735644
14.1473 0.863844
14.1701 0.925546
14.1929 1.05194
14.2157 0.980091
14.2385 0.908708
14.2612 0.802536
14.284 0.863767
14.3068 0.927629
14.3296 0.977103
14.3524 0.949952
14.3752 0.873328
14.3979 0.753299
14.4207 0.690304
14.4435 0.843934
14.4663 0.859422
14.4891 0.821064
14.5119 0.787166
14.5346 0.724473
14.5574 0.762673
14.5802 0.786099
14.603 0.845369
14.6258 0.881943
14.6486 0.748672
14.6713 0.749388
14.6941 0.712572
14.7169 0.783149
14.7397 0.794171
14.7625 0.790443
14.7852 0.807328
14.808 0.900095
14.8308 0.936088
14.8536 0.833275
14.8764 0.857545
14.8992 0.812962
14.9219 0.812653
14.9447 0.734672
14.9675 0.807231
14.9903 0.798016
15.0131 0.864041
15.0359 0.723844
15.0586 0.610608
15.0814 0.635752
15.1042 0.686647
15.127 0.785619
15.1498 0.761155
15.1726 0.640927
15.1953 0.634597
15.2181 0.571201
15.2409 0.562935
15.2637 0.578131
15.2865 0.620676
15.3093 0.620304
15.332 0.562044
15.3548 0.579772
15.3776 0.578551
15.4004 0.446919
15.4232 0.502361
15.4459 0.537979
15.4687 0.48435
15.4915 0.435755
15.5143 0.49324
15.5371 0.572929
15.5599 0.543284
15.5826 0.514922
15.6054 0.580675
15.6282 0.618608
15.651 0.615179
15.6738 0.689869
15.6966 0.573566
15.7193 0.45536
15.7421 0.451731
15.7649 0.425158
15.7877 0.447908
15.8105 0.473361
15.8333 0.46156
15.856 0.332941
15.8788 0.345872
15.9016 0.442901
15.9244 0.435983
15.9472 0.445119
15.97 0.442301
15.9927 0.432594
16.0155 0.499713
16.0383 0.505315
16.0611 0.567822
16.0839 0.516033
16.1066 0.587846
16.1294 0.559586
16.1522 0.525013
16.175 0.506126
16.1978 0.432075
16.2206 0.453142
16.2433 0.556618
16.2661 0.596324
16.2889 0.609984
16.3117 0.533365
16.3345 0.53114
16.3573 0.542345
16.38 0.49262
16.4028 0.486375
16.4256 0.537957
16.4484 0.544694
16.4712 0.551348
16.494 0.494016
16.5167 0.52515
16.5395 0.53968
16.5623 0.689757
16.5851 0.609928
16.6079 0.5425
16.6307 0.541767
16.6534 0.551876
16.6762 0.439803
16.699 0.456804
16.7218 0.558827
16.7446 0.484083
16.7674 0.391506
16.7901 0.392748
16.8129 0.422681
16.8357 0.4057
16.8585 0.471748
16.8813 0.500121
16.904 0.402479
16.9268 0.278933
16.9496 0.231317
16.9724 0.20845
16.9952 0.264218
17.018 0.17059
17.0407 0.231117
17.0635 0.272396
17.0863 0.228892
17.1091 0.145206
17.1319 0.174958
17.1547 0.145285
17.1774 0.0591099
17.2002 0.0102426
17.223 0.0600386
17.2458 0.0857033
17.2686 0.0977164
17.2914 0.130937
17.3141 0.145078
17.3369 0.0858648
17.3597 0.0473404
17.3825 0.0366933
17.4053 0.0774052
17.4281 0.0938003
17.4508 0.0756693
17.4736 0.0949473
17.4964 0.188161
17.5192 0.0795644
17.542 0.079006
17.5647 0.154112
17.5875 0.113835
17.6103 0.186056
17.6331 0.148811
17.6559 0.149611
17.6787 0.126577
17.7014 0.101725
17.7242 0.0611888
17.747 0.0910317
17.7698 0.088607
17.7926 0.103234
17.8154 0.106126
17.8381 0.126852
17.8609 0.0637179
17.8837 0.219575
17.9065 0.138634
17.9293 0.139242
17.9521 0.175242
17.9748 0.172154
17.9976 0.0951132
18.0204 0.102176
18.0432 0.166796
18.066 0.124826
18.0888 0.110395
18.1115 0.214535
18.1343 0.243097
18.1571 0.228689
18.1799 0.158848
18.2027 0.143848
18.2254 0.207956
18.2482 0.198758
18.271 0.0942114
18.2938 0.108616
18.3166 0.144571
18.3394 0.176398
18.3621 0.154671
18.3849 0.214208
18.4077 0.187828
18.4305 0.128096
18.4533 0.192975
18.4761 0.28654
18.4988 0.229374
18.5216 0.285507
18.5444 0.260039
18.5672 0.21175
18.59 0.180915
18.6128 0.219827
18.6355 0.230808
18.6583 0.262682
18.6811 0.188899
18.7039 0.189314
18.7267 0.202285
18.7495 0.233822
18.7722 0.170483
18.795 0.179945
18.8178 0.22514
18.8406 0.177058
18.8634 0.156361
18.8862 0.0721919
18.9089 0.14087
18.9317 0.246816
18.9545 0.187182
18.9773 0.141787
19.0001 0.227453
19.0228 0.197897
19.0456 0.117669
19.0684 0.0424823
19.0912 0.0146613
19.114 0.0365877
19.1368 0.0702421
19.1595 0.0671211
19.1823 0.144544
19.2051 0.0795745
19.2279 0.053894
19.2507 0.0802702
19.2735 0.1302
19.2962 0.15516
19.319 0.190501
19.3418 0.133432
19.3646 0.165804
19.3874 0.0911346
19.4102 0.1134
19.4329 0.148345
19.4557 0.191854
19.4785 0.130596
19.5013 0.0964224
19.5241 0.104595
19.5469 0.0686076
19.5696 0.102944
19.5924 0.0527519
19.6152 -0.029483
19.638 -0.0366239
19.6608 -0.0210133
19.6835 0.0508518
19.7063 0.0316972
19.7291 0.0241185
19.7519 -0.0403226
19.7747 -0.0481283
19.7975 -0.103831
19.8202 -0.0747336
19.843 -0.0474803
19.8658 -0.0501685
19.8886 -0.0590467
19.9114 -0.0351803
19.9342 -0.0784693
19.9569 -0.0610121
19.9797 -0.0425727
20.0025 0.0432272
20.0253 -0.0504299
20.0481 -0.0911051
20.0709 -0.0567163
20.0936 -0.101699
20.1164 -0.128072
20.1392 -0.096511
20.162 -0.153688
20.1848 -0.1638
20.2076 -0.136478
20.2303 -0.104131
20.2531 -0.12299
20.2759 -0.0942217
20.2987 -0.0431107
20.3215 -0.0495663
20.3442 -0.0473068
20.367 -0.100224
20.3898 -0.128149
20.4126 -0.0770247
20.4354 -0.0670481
20.4582 -0.104452
20.4809 -0.0957794
20.5037 -0.0681302
20.5265 -0.0894526
20.5493 -0.0916965
20.5721 -0.138368
20.5949 -0.138405
20.6176 -0.208961
20.6404 -0.148524
20.6632 -0.0687955
20.686 -0.114804
20.7088 -0.151477
20.7316 -0.14259
20.7543 -0.176169
20.7771 -0.149116
20.7999 -0.14921
20.8227 -0.149669
20.8455 -0.145151
20.8683 -0.172801
20.891 -0.144541
20.9138 -0.111089
20.9366 -0.201983
20.9594 -0.253604
20.9822 -0.276913
21.0049 -0.243833
21.0277 -0.188623
21.0505 -0.150544
21.0733 -0.11089
21.0961 -0.0904299
21.1189 -0.168238
21.1416 -0.184759
21.1644 -0.174344
21.1872 -0.149574
21.21 -0.156941
21.2328 -0.203986
21.2556 -0.170467
21.2783 -0.205052
21.3011 -0.298235
21.3239 -0.218887
21.3467 -0.173836
21.3695 -0.184747
21.3923 -0.147898
21.415 -0.203041
21.4378 -0.208273
21.4606 -0.26713
21.4834 -0.236376
21.5062 -0.160445
21.529 -0.222095
21.5517 -0.214548
21.5745 -0.215422
21.5973 -0.224301
21.6201 -0.2641
21.6429 -0.252003
21.6657 -0.202894
21.6884 -0.197304
21.7112 -0.205755
21.734 -0.145636
21.7568 -0.200933
21.7796 -0.173696
21.8023 -0.218562
21.8251 -0.263997
21.8479 -0.208913
21.8707 -0.191326
21.8935 -0.198044
21.9163 -0.213375
21.939 -0.165327
21.9618 -0.17629
21.9846 -0.179823
