# xPDFsuite Configuration #
[PDF]
wavelength = 0.1
dataformat = QA
inputfile = C_Tatania2-38.5-average.chi
backgroundfile = C_Tatania4-0.0-average.chi
mode = xray
bgscale = 1.00886627701
composition = TiO2
outputtype = iq
qmaxinst = 22.0
qmin = 0.0
qmax = 14.0756
rmax = 60.0
rmin = 0.0
rstep = 0.01
rpoly = 1.68

[Misc]
inputdir = /Users/sst/PycharmProjects/pdf-data-reduction-tutorial/notebooks/data/chi_bkgsub_false
savedir = /Users/sst/PycharmProjects/pdf-data-reduction-tutorial/notebooks/data/processed
backgroundfilefull = /Users/sst/PycharmProjects/pdf-data-reduction-tutorial/notebooks/data/chi_bkgsub_false/C_Tatania4-0.0-average.chi

#### start data
#S 1
#L Q($\AA^{-1}$)  intensity(a.u.)
0.0219978 -0.700393
0.0447806 -0.0519863
0.0675634 0.535263
0.0903462 -0.48029
0.113129 -0.315439
0.135912 -0.397796
0.158695 -0.30933
0.181477 0.708107
0.20426 0.314621
0.227043 2.1686
0.249826 1.64609
0.272609 2.51498
0.295391 11.8647
0.318174 22.7697
0.340957 22.2247
0.36374 26.3271
0.386523 -18.2862
0.409305 16.4202
0.432088 20.319
0.454871 6.47383
0.477654 5.07909
0.500436 3.86821
0.523219 3.0372
0.546002 4.04591
0.568785 0.711503
0.591568 -18.5402
0.61435 -9.23469
0.637133 3.51216
0.659916 2.61087
0.682699 1.01307
0.705482 1.37953
0.728264 4.06999
0.751047 7.18293
0.77383 8.78238
0.796613 9.15435
0.819396 9.72567
0.842178 9.22554
0.864961 8.72954
0.887744 9.4426
0.910527 10.2357
0.93331 10.524
0.956092 10.468
0.978875 10.6693
1.00166 11.6127
1.02444 12.0605
1.04722 12.6054
1.07001 12.6259
1.09279 12.9792
1.11557 13.5929
1.13835 14.5774
1.16114 15.6217
1.18392 17.1352
1.2067 18.806
1.22949 20.3656
1.25227 21.9471
1.27505 23.3839
1.29783 24.4587
1.32062 25.4521
1.3434 27.6953
1.36618 29.3142
1.38897 30.469
1.41175 31.6479
1.43453 32.4072
1.45731 32.4829
1.4801 33.0548
1.50288 34.3228
1.52566 35.9135
1.54844 36.7281
1.57123 36.9981
1.59401 37.3517
1.61679 38.0877
1.63958 38.9736
1.66236 40.9986
1.68514 44.9073
1.70792 50.576
1.73071 58.7531
1.75349 67.7116
1.77627 71.7349
1.79906 67.8586
1.82184 58.6201
1.84462 47.74
1.8674 39.7818
1.89019 34.5578
1.91297 30.4486
1.93575 27.7014
1.95854 26.1927
1.98132 25.0756
2.0041 24.0476
2.02688 23.2612
2.04967 21.7431
2.07245 20.944
2.09523 20.0386
2.11801 18.9589
2.1408 21.3002
2.16358 17.8628
2.18636 14.9763
2.20915 15.126
2.23193 15.2638
2.25471 15.1636
2.27749 14.7741
2.30028 13.8441
2.32306 13.048
2.34584 12.2163
2.36863 11.866
2.39141 11.292
2.41419 10.7402
2.43697 10.0843
2.45976 9.67208
2.48254 9.10685
2.50532 8.85627
2.52811 9.4865
2.55089 10.7021
2.57367 12.4545
2.59645 14.5832
2.61924 17.015
2.64202 17.8927
2.6648 17.0099
2.68758 15.3655
2.71037 13.7113
2.73315 12.6921
2.75593 11.8104
2.77872 10.9999
2.8015 10.5256
2.82428 11.0563
2.84706 12.1374
2.86985 10.4771
2.89263 9.31906
2.91541 9.01557
2.9382 8.91885
2.96098 8.59435
2.98376 7.90459
3.00654 6.79723
3.02933 5.98543
3.05211 5.92675
3.07489 6.63675
3.09767 7.67926
3.12046 8.7875
3.14324 9.29069
3.16602 9.46404
3.18881 9.60467
3.21159 10.9822
3.23437 13.5076
3.25715 16.6661
3.27994 19.8555
3.30272 21.4008
3.3255 20.207
3.34829 16.8573
3.37107 13.5214
3.39385 11.4051
3.41663 10.3714
3.43942 10.0558
3.4622 9.93611
3.48498 9.39671
3.50777 9.14307
3.53055 9.07853
3.55333 9.58989
3.57611 10.7773
3.5989 12.3456
3.62168 14.1886
3.64446 16.6709
3.66724 19.3208
3.69003 21.2076
3.71281 22.5171
3.73559 22.5141
3.75838 21.413
3.78116 19.4947
3.80394 17.2453
3.82672 15.5503
3.84951 14.7275
3.87229 14.0331
3.89507 13.5311
3.91786 12.8327
3.94064 12.3837
3.96342 11.8891
3.9862 11.7313
4.00899 11.6177
4.03177 12.1291
4.05455 12.5713
4.07733 12.7375
4.10012 13.1847
4.1229 13.8955
4.14568 14.684
4.16847 15.7593
4.19125 16.6465
4.21403 17.63
4.23681 17.6221
4.2596 16.552
4.28238 15.2514
4.30516 13.7081
4.32795 12.4049
4.35073 11.0916
4.37351 10.1634
4.39629 9.69043
4.41908 9.73456
4.44186 9.80449
4.46464 9.76087
4.48743 10.2299
4.51021 9.27531
4.53299 9.24381
4.55577 9.89279
4.57856 11.0781
4.60134 11.9947
4.62412 12.1894
4.6469 12.4743
4.66969 12.8197
4.69247 11.5813
4.71525 10.0245
4.73804 8.5265
4.76082 7.5385
4.7836 7.21372
4.80638 7.25902
4.82917 8.05202
4.85195 8.14585
4.87473 8.3304
4.89752 8.99165
4.9203 9.83931
4.94308 10.6292
4.96586 10.7156
4.98865 10.3528
5.01143 9.4396
5.03421 8.68922
5.057 8.25808
5.07978 8.14682
5.10256 6.90552
5.12534 6.33044
5.14813 5.99724
5.17091 5.44894
5.19369 5.12134
5.21647 4.99036
5.23926 5.07844
5.26204 5.41862
5.28482 5.57899
5.30761 5.8408
5.33039 6.26442
5.35317 6.90418
5.37595 6.88496
5.39874 6.57751
5.42152 5.64107
5.4443 4.58667
5.46709 3.80795
5.48987 3.30123
5.51265 2.82962
5.53543 2.56612
5.55822 2.18694
5.581 1.84025
5.60378 1.43504
5.62656 1.34076
5.64935 1.63949
5.67213 1.87855
5.69491 1.7732
5.7177 1.77551
5.74048 1.83938
5.76326 1.69075
5.78604 1.47256
5.80883 1.1217
5.83161 1.25117
5.85439 1.80994
5.87718 2.79693
5.89996 3.63251
5.92274 4.36602
5.94552 4.6147
5.96831 4.93742
5.99109 5.29922
6.01387 4.98996
6.03666 4.09679
6.05944 3.83465
6.08222 3.72691
6.105 3.62475
6.12779 3.7287
6.15057 3.88595
6.17335 4.16604
6.19613 4.06803
6.21892 3.94307
6.2417 4.12307
6.26448 3.55732
6.28727 3.01241
6.31005 2.89289
6.33283 2.88693
6.35561 2.87223
6.3784 2.7109
6.40118 2.62333
6.42396 2.44412
6.44675 2.43118
6.46953 2.6545
6.49231 2.74917
6.51509 2.97061
6.53788 3.4957
6.56066 3.53371
6.58344 3.71814
6.60622 3.78224
6.62901 3.60496
6.65179 3.83354
6.67457 3.45159
6.69736 3.06863
6.72014 2.89104
6.74292 2.94881
6.7657 3.19841
6.78849 3.54473
6.81127 3.96193
6.83405 4.15059
6.85684 4.06766
6.87962 3.79174
6.9024 3.4779
6.92518 3.44563
6.94797 3.73742
6.97075 4.11049
6.99353 4.63922
7.01632 4.73939
7.0391 4.31331
7.06188 3.87577
7.08466 3.66346
7.10745 3.60427
7.13023 3.49751
7.15301 3.40355
7.17579 3.27078
7.19858 3.07832
7.22136 2.73999
7.24414 2.54628
7.26693 2.55829
7.28971 2.67241
7.31249 2.63878
7.33527 2.86857
7.35806 3.27552
7.38084 3.47396
7.40362 3.64061
7.42641 3.71759
7.44919 3.77122
7.47197 3.80131
7.49475 3.69571
7.51754 3.65154
7.54032 3.63343
7.5631 3.51053
7.58589 3.32323
7.60867 3.22673
7.63145 3.18456
7.65423 3.2181
7.67702 3.32364
7.6998 3.47209
7.72258 3.56645
7.74536 3.52241
7.76815 3.71491
7.79093 3.89682
7.81371 3.6997
7.8365 3.48807
7.85928 3.51927
7.88206 3.51954
7.90484 3.34705
7.92763 3.07733
7.95041 2.85806
7.97319 2.91614
7.99598 2.60271
8.01876 2.40636
8.04154 2.43948
8.06432 2.42099
8.08711 2.31346
8.10989 2.24532
8.13267 2.10431
8.15545 2.01886
8.17824 1.99941
8.20102 2.09868
8.2238 2.02508
8.24659 2.13368
8.26937 2.26354
8.29215 2.43842
8.31493 2.53298
8.33772 2.51115
8.3605 2.87428
8.38328 3.13929
8.40607 3.18185
8.42885 3.26236
8.45163 3.09022
8.47441 2.80711
8.4972 2.46241
8.51998 2.28499
8.54276 2.2197
8.56555 2.09346
8.58833 1.92971
8.61111 2.02482
8.63389 2.07566
8.65668 1.93885
8.67946 1.74628
8.70224 1.62429
8.72502 1.66558
8.74781 1.82827
8.77059 1.82897
8.79337 1.51784
8.81616 1.5432
8.83894 1.65935
8.86172 1.94669
8.8845 1.89378
8.90729 1.78998
8.93007 1.8897
8.95285 1.94368
8.97564 1.96249
8.99842 1.83942
9.0212 1.84963
9.04398 1.71328
9.06677 1.71029
9.08955 1.66207
9.11233 1.42562
9.13511 1.27466
9.1579 1.17566
9.18068 1.21391
9.20346 1.09001
9.22625 1.10032
9.24903 1.04892
9.27181 1.10722
9.29459 1.14635
9.31738 1.35457
9.34016 1.40572
9.36294 1.45989
9.38573 1.57236
9.40851 1.58746
9.43129 1.48464
9.45407 1.38609
9.47686 1.48965
9.49964 1.47214
9.52242 1.46655
9.54521 1.3424
9.56799 1.29563
9.59077 1.30249
9.61355 1.2342
9.63634 1.21875
9.65912 1.16078
9.6819 1.1663
9.70468 1.0995
9.72747 1.22389
9.75025 1.37196
9.77303 1.13268
9.79582 1.03951
9.8186 1.03543
9.84138 1.13598
9.86416 1.1429
9.88695 1.10105
9.90973 1.22673
9.93251 1.27247
9.9553 1.21906
9.97808 1.10312
10.0009 1.11223
10.0236 1.18987
10.0464 1.34492
10.0692 1.49196
10.092 1.51778
10.1148 1.3783
10.1376 1.34735
10.1603 1.28402
10.1831 1.31329
10.2059 1.37114
10.2287 1.45122
10.2515 1.54855
10.2743 1.51032
10.297 1.3822
10.3198 1.46512
10.3426 1.46763
10.3654 1.52122
10.3882 1.51212
10.411 1.58418
10.4337 1.6556
10.4565 1.75644
10.4793 1.66578
10.5021 1.66251
10.5249 1.62493
10.5476 1.69854
10.5704 1.81342
10.5932 1.97495
10.616 1.98096
10.6388 2.06706
10.6616 2.09152
10.6843 2.01966
10.7071 1.9266
10.7299 1.7358
10.7527 1.81568
10.7755 1.85149
10.7983 1.78659
10.821 1.59391
10.8438 1.58728
10.8666 1.63804
10.8894 1.54434
10.9122 1.46925
10.935 1.32027
10.9577 1.30822
10.9805 1.30856
11.0033 1.43543
11.0261 1.56083
11.0489 1.42498
11.0717 1.44296
11.0944 1.48946
11.1172 1.32161
11.14 1.32964
11.1628 1.34655
11.1856 1.31145
11.2083 1.1592
11.2311 1.19343
11.2539 1.1535
11.2767 1.16959
11.2995 1.13385
11.3223 1.07564
11.345 1.142
11.3678 1.14494
11.3906 1.15265
11.4134 1.12083
11.4362 1.18401
11.459 1.25574
11.4817 1.18793
11.5045 1.20483
11.5273 1.33708
11.5501 1.43048
11.5729 1.4925
11.5957 1.50768
11.6184 1.52516
11.6412 1.55406
11.664 1.65163
11.6868 1.67552
11.7096 1.58186
11.7324 1.63996
11.7551 1.6534
11.7779 1.55015
11.8007 1.47922
11.8235 1.55432
11.8463 1.47996
11.8691 1.45426
11.8918 1.5415
11.9146 1.56199
11.9374 1.59696
11.9602 1.57699
11.983 1.52718
12.0057 1.49897
12.0285 1.49612
12.0513 1.48009
12.0741 1.52849
12.0969 1.50497
12.1197 1.46483
12.1424 1.42126
12.1652 1.34168
12.188 1.4083
12.2108 1.43961
12.2336 1.41065
12.2564 1.32209
12.2791 1.22944
12.3019 1.33658
12.3247 1.42012
12.3475 1.38946
12.3703 1.38617
12.3931 1.37678
12.4158 1.36198
12.4386 1.27064
12.4614 1.29824
12.4842 1.37294
12.507 1.36872
12.5298 1.32076
12.5525 1.30357
12.5753 1.226
12.5981 1.1538
12.6209 1.18393
12.6437 1.20191
12.6664 1.11553
12.6892 0.916676
12.712 0.750522
12.7348 0.735102
12.7576 0.833387
12.7804 0.809048
12.8031 0.863892
12.8259 0.95599
12.8487 0.814683
12.8715 0.831472
12.8943 0.866176
12.9171 0.890032
12.9398 0.918222
12.9626 0.96047
12.9854 0.87195
13.0082 0.809323
13.031 0.810932
13.0538 0.823203
13.0765 0.824226
13.0993 0.87584
13.1221 0.8213
13.1449 0.839263
13.1677 0.788092
13.1905 0.748848
13.2132 0.892397
13.236 1.0287
13.2588 1.07448
13.2816 0.976799
13.3044 1.00323
13.3271 1.08358
13.3499 1.08046
13.3727 0.971413
13.3955 0.951019
13.4183 0.941286
13.4411 1.01781
13.4638 0.981081
13.4866 0.936432
13.5094 0.827157
13.5322 0.808059
13.555 0.865813
13.5778 0.820998
13.6005 0.855735
13.6233 0.90268
13.6461 0.891427
13.6689 0.907829
13.6917 0.897665
13.7145 0.919448
13.7372 0.889357
13.76 0.923654
13.7828 0.933061
13.8056 0.900528
13.8284 0.871143
13.8512 0.956845
13.8739 0.880464
13.8967 0.858347
13.9195 0.904728
13.9423 0.934206
13.9651 0.951768
13.9878 0.923954
14.0106 0.958441
14.0334 0.938162
14.0562 0.976531
14.079 0.937522
14.1018 0.876291
14.1245 0.957329
14.1473 1.01728
14.1701 0.924843
14.1929 1.00683
14.2157 1.03557
14.2385 1.09535
14.2612 0.930257
14.284 0.847412
14.3068 0.971298
14.3296 0.994344
14.3524 0.990029
14.3752 0.99587
14.3979 0.869965
14.4207 0.870464
14.4435 1.00934
14.4663 1.03457
14.4891 0.995018
14.5119 0.939453
14.5346 0.845615
14.5574 0.802923
14.5802 0.731134
14.603 0.828866
14.6258 0.88964
14.6486 0.738529
14.6713 0.811509
14.6941 0.823632
14.7169 0.853845
14.7397 0.850394
14.7625 0.80642
14.7852 0.90893
14.808 1.01405
14.8308 0.91947
14.8536 0.880979
14.8764 0.884674
14.8992 0.871432
14.9219 0.808222
14.9447 0.802543
14.9675 0.89267
14.9903 0.916484
15.0131 1.00908
15.0359 1.0052
15.0586 0.877897
15.0814 0.840112
15.1042 0.757153
15.127 0.830846
15.1498 0.85904
15.1726 0.840642
15.1953 0.878044
15.2181 0.815031
15.2409 0.708051
15.2637 0.728872
15.2865 0.845039
15.3093 0.793328
15.332 0.732091
15.3548 0.754695
15.3776 0.813363
15.4004 0.736003
15.4232 0.68766
15.4459 0.70217
15.4687 0.688967
15.4915 0.670677
15.5143 0.745376
15.5371 0.785722
15.5599 0.785018
15.5826 0.672517
15.6054 0.641998
15.6282 0.719805
15.651 0.78044
15.6738 0.810295
15.6966 0.7826
15.7193 0.759909
15.7421 0.789151
15.7649 0.744302
15.7877 0.652091
15.8105 0.604291
15.8333 0.654991
15.856 0.623
15.8788 0.619257
15.9016 0.702635
15.9244 0.675902
15.9472 0.7869
15.97 0.710919
15.9927 0.63515
16.0155 0.658304
16.0383 0.699649
16.0611 0.737172
16.0839 0.702218
16.1066 0.809275
16.1294 0.788623
16.1522 0.779413
16.175 0.714372
16.1978 0.670561
16.2206 0.714436
16.2433 0.736155
16.2661 0.807026
16.2889 0.881539
16.3117 0.797097
16.3345 0.665032
16.3573 0.714012
16.38 0.712123
16.4028 0.695926
16.4256 0.654405
16.4484 0.6677
16.4712 0.70319
16.494 0.617893
16.5167 0.646962
16.5395 0.612842
16.5623 0.753329
16.5851 0.726667
16.6079 0.665553
16.6307 0.663498
16.6534 0.680574
16.6762 0.642835
16.699 0.657431
16.7218 0.699405
16.7446 0.630257
16.7674 0.676859
16.7901 0.656347
16.8129 0.635788
16.8357 0.56448
16.8585 0.601154
16.8813 0.574746
16.904 0.545911
16.9268 0.563944
16.9496 0.535194
16.9724 0.541165
16.9952 0.564244
17.018 0.466316
17.0407 0.46496
17.0635 0.4845
17.0863 0.513767
17.1091 0.552168
17.1319 0.649555
17.1547 0.647736
17.1774 0.517652
17.2002 0.460305
17.223 0.431457
17.2458 0.495028
17.2686 0.462982
17.2914 0.488776
17.3141 0.514353
17.3369 0.472512
17.3597 0.409991
17.3825 0.354671
17.4053 0.437513
17.4281 0.47414
17.4508 0.517222
17.4736 0.541619
17.4964 0.480012
17.5192 0.523724
17.542 0.46768
17.5647 0.478079
17.5875 0.39856
17.6103 0.460303
17.6331 0.43111
17.6559 0.495451
17.6787 0.461966
17.7014 0.435071
17.7242 0.362637
17.747 0.299437
17.7698 0.377939
17.7926 0.391704
17.8154 0.395427
17.8381 0.481379
17.8609 0.434131
17.8837 0.477383
17.9065 0.402885
17.9293 0.438344
17.9521 0.402249
17.9748 0.427607
17.9976 0.484559
18.0204 0.420116
18.0432 0.463366
18.066 0.50351
18.0888 0.509733
18.1115 0.565453
18.1343 0.509049
18.1571 0.484741
18.1799 0.490065
18.2027 0.451014
18.2254 0.532255
18.2482 0.470263
18.271 0.476284
18.2938 0.441978
18.3166 0.411394
18.3394 0.404667
18.3621 0.445664
18.3849 0.491743
18.4077 0.533966
18.4305 0.444888
18.4533 0.453659
18.4761 0.490002
18.4988 0.512857
18.5216 0.522285
18.5444 0.491917
18.5672 0.455945
18.59 0.416595
18.6128 0.412539
18.6355 0.435081
18.6583 0.48432
18.6811 0.515962
18.7039 0.514076
18.7267 0.497734
18.7495 0.522361
18.7722 0.483894
18.795 0.45494
18.8178 0.460675
18.8406 0.517617
18.8634 0.473835
18.8862 0.37722
18.9089 0.406826
18.9317 0.45482
18.9545 0.434924
18.9773 0.386081
19.0001 0.459779
19.0228 0.469919
19.0456 0.371927
19.0684 0.365098
19.0912 0.382124
19.114 0.429098
19.1368 0.478082
19.1595 0.443866
19.1823 0.514093
19.2051 0.469032
19.2279 0.407842
19.2507 0.40035
19.2735 0.399127
19.2962 0.400166
19.319 0.458023
19.3418 0.462295
19.3646 0.426083
19.3874 0.420893
19.4102 0.436265
19.4329 0.361897
19.4557 0.419432
19.4785 0.390798
19.5013 0.362543
19.5241 0.320786
19.5469 0.386628
19.5696 0.413241
19.5924 0.344721
19.6152 0.262622
19.638 0.303579
19.6608 0.330885
19.6835 0.323057
19.7063 0.329871
19.7291 0.371796
19.7519 0.339975
19.7747 0.323614
19.7975 0.29242
19.8202 0.386758
19.843 0.32275
19.8658 0.285315
19.8886 0.29877
19.9114 0.302152
19.9342 0.302322
19.9569 0.324487
19.9797 0.273212
20.0025 0.317153
20.0253 0.312352
20.0481 0.360659
20.0709 0.384463
20.0936 0.294939
20.1164 0.360418
20.1392 0.302801
20.162 0.245105
20.1848 0.270088
20.2076 0.286687
20.2303 0.289607
20.2531 0.263845
20.2759 0.347773
20.2987 0.359736
20.3215 0.341564
20.3442 0.385252
20.367 0.278533
20.3898 0.278201
20.4126 0.294552
20.4354 0.306417
20.4582 0.273759
20.4809 0.233332
20.5037 0.234477
20.5265 0.231423
20.5493 0.272559
20.5721 0.274991
20.5949 0.282834
20.6176 0.159286
20.6404 0.174904
20.6632 0.226375
20.686 0.324478
20.7088 0.256292
20.7316 0.260967
20.7543 0.255793
20.7771 0.203369
20.7999 0.208874
20.8227 0.157993
20.8455 0.191512
20.8683 0.202642
20.891 0.211084
20.9138 0.246716
20.9366 0.189627
20.9594 0.176953
20.9822 0.168619
21.0049 0.127278
21.0277 0.137145
21.0505 0.158656
21.0733 0.197601
21.0961 0.177069
21.1189 0.154795
21.1416 0.189306
21.1644 0.169963
21.1872 0.131355
21.21 0.201031
21.2328 0.18163
21.2556 0.188095
21.2783 0.190781
21.3011 0.176876
21.3239 0.244911
21.3467 0.205435
21.3695 0.187594
21.3923 0.192042
21.415 0.22737
21.4378 0.200544
21.4606 0.210893
21.4834 0.187254
21.5062 0.195839
21.529 0.188414
21.5517 0.188076
21.5745 0.179095
21.5973 0.125842
21.6201 0.0993798
21.6429 0.125658
21.6657 0.186212
21.6884 0.154096
21.7112 0.161594
21.734 0.207689
21.7568 0.155287
21.7796 0.110093
21.8023 0.0982309
21.8251 0.0891743
21.8479 0.122234
21.8707 0.161943
21.8935 0.234131
21.9163 0.181314
21.939 0.221892
21.9618 0.233557
21.9846 0.165929
