# xPDFsuite Configuration #
[PDF]
wavelength = 0.1
dataformat = QA
inputfile = C_Tatania1-46.8-average.chi
backgroundfile = C_Tatania4-0.0-average.chi
mode = xray
bgscale = 0.995617409436
composition = TiO2
outputtype = iq
qmaxinst = 21.9974601
qmin = 0.76462
qmax = 14.4479317937
rmax = 30.0
rmin = 0.0
rstep = 0.01
rpoly = 1.3998

[Misc]
inputdir = /Users/sst/PycharmProjects/pdf-data-reduction-tutorial/notebooks/data/chi_bkgsub_false
savedir = /Users/sst/PycharmProjects/pdf-data-reduction-tutorial/notebooks/data/processed
backgroundfilefull = /Users/sst/PycharmProjects/pdf-data-reduction-tutorial/notebooks/data/chi_bkgsub_false/C_Tatania4-0.0-average.chi

#### start data
#S 1
#L Q($\AA^{-1}$)  intensity(a.u.)
0.77383 18.1987
0.796613 18.0436
0.819396 18.6872
0.842178 18.6745
0.864961 18.2121
0.887744 18.278
0.910527 18.7063
0.93331 18.7687
0.956092 18.4001
0.978875 18.5847
1.00166 19.2614
1.02444 19.4238
1.04722 19.4969
1.07001 19.3407
1.09279 19.905
1.11557 19.8468
1.13835 20.0342
1.16114 20.2826
1.18392 21.3231
1.2067 22.1464
1.22949 23.3362
1.25227 24.1356
1.27505 24.7193
1.29783 24.9814
1.32062 24.9741
1.3434 26.2281
1.36618 27.2914
1.38897 27.8244
1.41175 28.407
1.43453 28.8764
1.45731 28.7616
1.4801 29.0859
1.50288 30.0786
1.52566 31.5327
1.54844 31.6017
1.57123 31.3322
1.59401 31.5085
1.61679 32.7693
1.63958 33.5862
1.66236 35.036
1.68514 37.4409
1.70792 41.4773
1.73071 46.9136
1.75349 53.6576
1.77627 57.1903
1.79906 55.6328
1.82184 49.1667
1.84462 40.3469
1.8674 33.284
1.89019 28.6206
1.91297 25.4773
1.93575 23.3873
1.95854 22.2864
1.98132 21.1344
2.0041 19.8073
2.02688 18.7227
2.04967 17.9222
2.07245 17.845
2.09523 18.1712
2.11801 18.9429
2.1408 18.0247
2.16358 14.0946
2.18636 10.15
2.20915 9.65487
2.23193 11.0891
2.25471 12.3461
2.27749 12.6157
2.30028 12.3977
2.32306 11.7464
2.34584 10.7939
2.36863 10.5517
2.39141 10.7981
2.41419 11.3175
2.43697 12.0842
2.45976 11.9776
2.48254 9.54263
2.50532 6.4075
2.52811 5.80365
2.55089 7.72831
2.57367 10.1826
2.59645 12.2658
2.61924 14.2165
2.64202 14.7421
2.6648 13.8654
2.68758 12.5394
2.71037 11.1174
2.73315 9.99118
2.75593 9.35051
2.77872 8.53894
2.8015 8.02333
2.82428 7.80469
2.84706 7.89334
2.86985 8.28096
2.89263 8.09902
2.91541 6.6755
2.9382 6.06069
2.96098 5.98243
2.98376 5.41692
3.00654 4.37978
3.02933 3.65393
3.05211 3.61863
3.07489 4.28277
3.09767 5.51524
3.12046 6.71732
3.14324 7.0464
3.16602 6.66991
3.18881 6.59331
3.21159 7.43632
3.23437 8.9849
3.25715 11.2515
3.27994 13.9711
3.30272 15.7361
3.3255 15.7006
3.34829 13.2845
3.37107 10.5034
3.39385 8.66731
3.41663 8.04152
3.43942 8.15309
3.4622 9.2264
3.48498 9.54734
3.50777 8.33145
3.53055 6.2336
3.55333 4.62953
3.57611 5.46999
3.5989 7.52694
3.62168 9.53447
3.64446 11.1249
3.66724 12.9031
3.69003 14.9639
3.71281 16.2232
3.73559 16.4773
3.75838 15.8672
3.78116 14.7123
3.80394 13.0994
3.82672 11.5698
3.84951 10.2921
3.87229 9.43827
3.89507 9.5065
3.91786 9.13116
3.94064 8.55572
3.96342 8.27097
3.9862 8.5618
4.00899 8.81153
4.03177 9.64433
4.05455 10.7641
4.07733 11.9052
4.10012 12.5927
4.1229 11.7023
4.14568 10.0497
4.16847 9.51185
4.19125 10.3143
4.21403 11.7291
4.23681 12.1663
4.2596 11.8829
4.28238 11.0045
4.30516 10.0474
4.32795 9.16621
4.35073 8.12014
4.37351 7.24808
4.39629 6.87394
4.41908 6.78586
4.44186 6.63451
4.46464 6.39936
4.48743 6.34504
4.51021 6.09314
4.53299 6.04687
4.55577 6.33316
4.57856 7.19581
4.60134 8.03888
4.62412 8.49098
4.6469 8.61379
4.66969 8.56675
4.69247 7.9082
4.71525 6.76549
4.73804 5.4713
4.76082 4.70112
4.7836 4.57535
4.80638 4.64602
4.82917 5.26758
4.85195 5.53495
4.87473 5.8011
4.89752 6.25058
4.9203 6.84032
4.94308 7.23693
4.96586 7.42427
4.98865 7.51923
5.01143 7.91679
5.03421 6.44139
5.057 5.59501
5.07978 5.48697
5.10256 4.66143
5.12534 4.02821
5.14813 3.57394
5.17091 3.3482
5.19369 3.2917
5.21647 3.2309
5.23926 3.65741
5.26204 4.13555
5.28482 4.10545
5.30761 4.2059
5.33039 4.56044
5.35317 5.10498
5.37595 5.19658
5.39874 4.95478
5.42152 4.37533
5.4443 3.36876
5.46709 2.37431
5.48987 1.92627
5.51265 1.75513
5.53543 1.81244
5.55822 1.51303
5.581 0.949244
5.60378 0.30028
5.62656 0.0215468
5.64935 0.414596
5.67213 0.857416
5.69491 1.22513
5.7177 1.42134
5.74048 1.38715
5.76326 1.07416
5.78604 0.59342
5.80883 0.00242666
5.83161 0.0881155
5.85439 0.696896
5.87718 1.51657
5.89996 2.39882
5.92274 3.11456
5.94552 3.28222
5.96831 3.4898
5.99109 3.8502
6.01387 3.77767
6.03666 3.25778
6.05944 2.97709
6.08222 2.66521
6.105 2.67279
6.12779 2.52971
6.15057 2.25441
6.17335 2.40465
6.19613 2.56606
6.21892 2.59543
6.2417 2.8467
6.26448 2.749
6.28727 2.39233
6.31005 2.26892
6.33283 2.36774
6.35561 2.39045
6.3784 2.08897
6.40118 2.04354
6.42396 2.06445
6.44675 1.95936
6.46953 1.88507
6.49231 1.5576
6.51509 1.62177
6.53788 2.06462
6.56066 2.092
6.58344 2.12911
6.60622 2.71802
6.62901 3.07358
6.65179 3.04361
6.67457 2.66798
6.69736 2.44635
6.72014 2.23397
6.74292 2.3664
6.7657 2.67246
6.78849 2.59219
6.81127 2.96841
6.83405 3.19394
6.85684 3.00129
6.87962 2.65859
6.9024 2.57332
6.92518 2.49677
6.94797 2.6792
6.97075 2.98395
6.99353 3.38833
7.01632 3.43555
7.0391 3.20286
7.06188 2.88885
7.08466 2.70873
7.10745 2.69255
7.13023 2.84163
7.15301 2.9078
7.17579 2.73835
7.19858 2.56574
7.22136 2.13404
7.24414 1.88299
7.26693 1.90357
7.28971 1.9921
7.31249 1.96247
7.33527 2.12061
7.35806 2.26316
7.38084 2.38847
7.40362 2.72217
7.42641 2.7407
7.44919 2.66637
7.47197 2.76727
7.49475 2.67551
7.51754 2.62604
7.54032 2.68201
7.5631 2.66738
7.58589 2.56844
7.60867 2.4291
7.63145 2.17308
7.65423 2.0942
7.67702 1.96335
7.6998 1.96604
7.72258 2.16178
7.74536 2.28674
7.76815 2.54292
7.79093 2.92389
7.81371 2.8569
7.8365 2.72614
7.85928 2.68948
7.88206 2.66631
7.90484 2.50555
7.92763 2.35393
7.95041 2.34108
7.97319 2.49157
7.99598 2.09436
8.01876 1.91759
8.04154 1.89511
8.06432 1.71995
8.08711 1.47834
8.10989 1.47053
8.13267 1.40915
8.15545 1.23253
8.17824 1.20592
8.20102 1.37994
8.2238 1.5279
8.24659 1.61827
8.26937 1.769
8.29215 1.89474
8.31493 1.87815
8.33772 1.97326
8.3605 2.34737
8.38328 2.54557
8.40607 2.40747
8.42885 2.3744
8.45163 2.38416
8.47441 2.17641
8.4972 1.74343
8.51998 1.61034
8.54276 1.54917
8.56555 1.57546
8.58833 1.42401
8.61111 1.5346
8.63389 1.58487
8.65668 1.49895
8.67946 1.36041
8.70224 1.17058
8.72502 1.03408
8.74781 1.09189
8.77059 1.1332
8.79337 0.977933
8.81616 0.984925
8.83894 1.12754
8.86172 1.36806
8.8845 1.30171
8.90729 1.27128
8.93007 1.41112
8.95285 1.42482
8.97564 1.3921
8.99842 1.23634
9.0212 1.10093
9.04398 1.10879
9.06677 1.21548
9.08955 1.1378
9.11233 1.01073
9.13511 0.826918
9.1579 0.699632
9.18068 0.57524
9.20346 0.428424
9.22625 0.498489
9.24903 0.511433
9.27181 0.530515
9.29459 0.679671
9.31738 0.959796
9.34016 1.11995
9.36294 1.27711
9.38573 1.31163
9.40851 1.34582
9.43129 1.25346
9.45407 1.04496
9.47686 1.09039
9.49964 1.02237
9.52242 1.0314
9.54521 1.02471
9.56799 0.966829
9.59077 0.900125
9.61355 1.00848
9.63634 1.06003
9.65912 0.939825
9.6819 0.910365
9.70468 0.92316
9.72747 1.00596
9.75025 1.06447
9.77303 0.858477
9.79582 0.82528
9.8186 0.7079
9.84138 0.706755
9.86416 0.68622
9.88695 0.726393
9.90973 0.866902
9.93251 0.843685
9.9553 0.886576
9.97808 0.916679
10.0009 0.965103
10.0236 1.08469
10.0464 1.23577
10.0692 1.35955
10.092 1.29515
10.1148 1.1629
10.1376 1.00726
10.1603 0.898469
10.1831 0.908953
10.2059 0.953367
10.2287 1.04298
10.2515 1.19757
10.2743 1.16754
10.297 1.04329
10.3198 1.06749
10.3426 1.10688
10.3654 1.17833
10.3882 1.14179
10.411 1.14579
10.4337 1.12688
10.4565 1.2026
10.4793 1.13093
10.5021 1.18224
10.5249 1.20085
10.5476 1.25146
10.5704 1.34631
10.5932 1.36671
10.616 1.35604
10.6388 1.46172
10.6616 1.51066
10.6843 1.45659
10.7071 1.43562
10.7299 1.2901
10.7527 1.30914
10.7755 1.33801
10.7983 1.3918
10.821 1.32576
10.8438 1.23199
10.8666 1.16068
10.8894 1.10464
10.9122 1.0583
10.935 1.03449
10.9577 1.06498
10.9805 1.10464
11.0033 1.10036
11.0261 1.17351
11.0489 1.12348
11.0717 1.15198
11.0944 1.28362
11.1172 1.24176
11.14 1.25597
11.1628 1.25684
11.1856 1.1977
11.2083 1.0864
11.2311 1.0505
11.2539 1.01991
11.2767 0.933086
11.2995 0.95357
11.3223 0.905705
11.345 0.941727
11.3678 0.947441
11.3906 0.82905
11.4134 0.840228
11.4362 0.949885
11.459 0.961395
11.4817 0.961602
11.5045 0.971446
11.5273 1.03338
11.5501 1.03694
11.5729 1.06254
11.5957 1.12943
11.6184 1.17124
11.6412 1.23421
11.664 1.29548
11.6868 1.33039
11.7096 1.39647
11.7324 1.45305
11.7551 1.44362
11.7779 1.29758
11.8007 1.1418
11.8235 1.09748
11.8463 1.14984
11.8691 1.13547
11.8918 1.12088
11.9146 1.14818
11.9374 1.13868
11.9602 1.14137
11.983 1.053
12.0057 1.07132
12.0285 1.08611
12.0513 1.04764
12.0741 0.966219
12.0969 1.06143
12.1197 1.07873
12.1424 0.986516
12.1652 0.91396
12.188 0.979759
12.2108 0.96533
12.2336 1.02563
12.2564 1.00425
12.2791 0.921157
12.3019 0.904492
12.3247 0.985523
12.3475 0.984918
12.3703 1.0324
12.3931 0.970411
12.4158 0.906753
12.4386 0.87701
12.4614 0.886026
12.4842 0.964353
12.507 0.958948
12.5298 1.01239
12.5525 0.954533
12.5753 0.843535
12.5981 0.789243
12.6209 0.8393
12.6437 0.781703
12.6664 0.751565
12.6892 0.69656
12.712 0.531281
12.7348 0.55458
12.7576 0.677826
12.7804 0.564095
12.8031 0.603194
12.8259 0.605498
12.8487 0.569947
12.8715 0.581443
12.8943 0.546543
12.9171 0.568455
12.9398 0.594017
12.9626 0.676856
12.9854 0.683245
13.0082 0.61455
13.031 0.645443
13.0538 0.644455
13.0765 0.645746
13.0993 0.708693
13.1221 0.722113
13.1449 0.756415
13.1677 0.727555
13.1905 0.664173
13.2132 0.661073
13.236 0.780066
13.2588 0.85964
13.2816 0.765863
13.3044 0.719647
13.3271 0.802247
13.3499 0.788698
13.3727 0.744985
13.3955 0.75359
13.4183 0.74134
13.4411 0.738355
13.4638 0.710012
13.4866 0.701755
13.5094 0.619558
13.5322 0.528461
13.555 0.611585
13.5778 0.579048
13.6005 0.594122
13.6233 0.651406
13.6461 0.657974
13.6689 0.688097
13.6917 0.702603
13.7145 0.686385
13.7372 0.669549
13.76 0.601465
13.7828 0.596679
13.8056 0.589265
13.8284 0.595868
13.8512 0.609419
13.8739 0.605177
13.8967 0.592491
13.9195 0.60261
13.9423 0.639013
13.9651 0.656603
13.9878 0.615074
14.0106 0.675538
14.0334 0.63225
14.0562 0.678703
14.079 0.678462
14.1018 0.607347
14.1245 0.679196
14.1473 0.776742
14.1701 0.664167
14.1929 0.703551
14.2157 0.6784
14.2385 0.657802
14.2612 0.562594
14.284 0.593416
14.3068 0.650869
14.3296 0.685154
14.3524 0.657119
14.3752 0.565847
14.3979 0.457881
14.4207 0.523752
14.4435 0.656197
14.4663 0.662567
14.4891 0.714334
14.5119 0.684975
14.5346 0.603434
14.5574 0.483207
14.5802 0.464701
14.603 0.547986
14.6258 0.582612
14.6486 0.482962
14.6713 0.526564
14.6941 0.517145
14.7169 0.564479
14.7397 0.608296
14.7625 0.54385
14.7852 0.599458
14.808 0.648903
14.8308 0.730127
14.8536 0.706725
14.8764 0.603113
14.8992 0.638309
14.9219 0.597226
14.9447 0.503848
14.9675 0.532613
14.9903 0.473507
15.0131 0.513518
15.0359 0.532947
15.0586 0.494949
15.0814 0.569677
15.1042 0.586209
15.127 0.531259
15.1498 0.498756
15.1726 0.523686
15.1953 0.550876
15.2181 0.500325
15.2409 0.514401
15.2637 0.472393
15.2865 0.552341
15.3093 0.511088
15.332 0.480466
15.3548 0.468092
15.3776 0.531152
15.4004 0.498913
15.4232 0.457745
15.4459 0.396324
15.4687 0.314319
15.4915 0.386789
15.5143 0.486884
15.5371 0.517024
15.5599 0.532006
15.5826 0.453139
15.6054 0.367323
15.6282 0.396306
15.651 0.43004
15.6738 0.480835
15.6966 0.403437
15.7193 0.362027
15.7421 0.418977
15.7649 0.374565
15.7877 0.326505
15.8105 0.328362
15.8333 0.420173
15.856 0.411733
15.8788 0.384552
15.9016 0.416233
15.9244 0.33367
15.9472 0.394852
15.97 0.357022
15.9927 0.324565
16.0155 0.377107
16.0383 0.385682
16.0611 0.426394
16.0839 0.425827
16.1066 0.524584
16.1294 0.459339
16.1522 0.374707
16.175 0.367249
16.1978 0.308886
16.2206 0.352954
16.2433 0.460248
16.2661 0.508568
16.2889 0.587896
16.3117 0.526235
16.3345 0.351202
16.3573 0.30272
16.38 0.331309
16.4028 0.401078
16.4256 0.38034
16.4484 0.369781
16.4712 0.432698
16.494 0.356018
16.5167 0.391557
16.5395 0.379776
16.5623 0.513112
16.5851 0.498878
16.6079 0.412867
16.6307 0.388142
16.6534 0.424178
16.6762 0.404292
16.699 0.284444
16.7218 0.396307
16.7446 0.420454
16.7674 0.440193
16.7901 0.421198
16.8129 0.451119
16.8357 0.413273
16.8585 0.38723
16.8813 0.39728
16.904 0.359998
16.9268 0.344815
16.9496 0.316189
16.9724 0.323247
16.9952 0.336807
17.018 0.26222
17.0407 0.280644
17.0635 0.342022
17.0863 0.277251
17.1091 0.196662
17.1319 0.240045
17.1547 0.32862
17.1774 0.261114
17.2002 0.195495
17.223 0.21467
17.2458 0.303884
17.2686 0.262516
17.2914 0.298956
17.3141 0.337977
17.3369 0.307105
17.3597 0.262316
17.3825 0.242944
17.4053 0.284764
17.4281 0.259614
17.4508 0.278816
17.4736 0.289326
17.4964 0.284536
17.5192 0.278827
17.542 0.245673
17.5647 0.174771
17.5875 0.14608
17.6103 0.258718
17.6331 0.259455
17.6559 0.283832
17.6787 0.298276
17.7014 0.335918
17.7242 0.244301
17.747 0.214388
17.7698 0.280529
17.7926 0.240105
17.8154 0.263834
17.8381 0.322558
17.8609 0.30584
17.8837 0.349295
17.9065 0.284495
17.9293 0.311699
17.9521 0.226772
17.9748 0.233118
17.9976 0.276336
18.0204 0.26936
18.0432 0.33211
18.066 0.271143
18.0888 0.231932
18.1115 0.300287
18.1343 0.251656
18.1571 0.236594
18.1799 0.298104
18.2027 0.269348
18.2254 0.262209
18.2482 0.265545
18.271 0.249428
18.2938 0.209474
18.3166 0.245551
18.3394 0.253403
18.3621 0.237494
18.3849 0.274194
18.4077 0.328517
18.4305 0.280068
18.4533 0.341738
18.4761 0.395765
18.4988 0.341069
18.5216 0.298254
18.5444 0.28777
18.5672 0.265793
18.59 0.301247
18.6128 0.294266
18.6355 0.284629
18.6583 0.291249
18.6811 0.310004
18.7039 0.302838
18.7267 0.239692
18.7495 0.299068
18.7722 0.350176
18.795 0.316094
18.8178 0.296108
18.8406 0.266518
18.8634 0.225148
18.8862 0.160829
18.9089 0.235228
18.9317 0.340078
18.9545 0.368383
18.9773 0.307842
19.0001 0.335411
19.0228 0.289195
19.0456 0.262517
19.0684 0.200108
19.0912 0.143342
19.114 0.160577
19.1368 0.280323
19.1595 0.249879
19.1823 0.256581
19.2051 0.1936
19.2279 0.206179
19.2507 0.226057
19.2735 0.236807
19.2962 0.229173
19.319 0.220087
19.3418 0.263269
19.3646 0.24677
19.3874 0.176798
19.4102 0.187539
19.4329 0.189166
19.4557 0.227731
19.4785 0.217628
19.5013 0.2069
19.5241 0.203608
19.5469 0.228418
19.5696 0.175606
19.5924 0.140049
19.6152 0.0620714
19.638 0.122036
19.6608 0.205387
19.6835 0.218709
19.7063 0.221039
19.7291 0.165972
19.7519 0.149113
19.7747 0.191473
19.7975 0.127758
19.8202 0.0686781
19.843 0.0847162
19.8658 0.0842661
19.8886 0.0665328
19.9114 0.115415
19.9342 0.0622278
19.9569 0.121181
19.9797 0.129911
20.0025 0.162819
20.0253 0.131115
20.0481 0.126555
20.0709 0.182272
20.0936 0.17044
20.1164 0.130784
20.1392 0.124492
20.162 0.116973
20.1848 0.0793158
20.2076 0.0865563
20.2303 0.0892835
20.2531 0.0566606
20.2759 0.0969368
20.2987 0.200051
20.3215 0.239569
20.3442 0.165172
20.367 0.132317
20.3898 0.143218
20.4126 0.106291
20.4354 0.139192
20.4582 0.131404
20.4809 0.108719
20.5037 0.0783789
20.5265 0.0261394
20.5493 0.0123078
20.5721 0.0440787
20.5949 0.065398
20.6176 -0.0179364
20.6404 0.042772
20.6632 0.0690346
20.686 0.099074
20.7088 0.0597738
20.7316 0.0830484
20.7543 0.0670298
20.7771 0.0533325
20.7999 0.0862585
20.8227 0.0459018
20.8455 0.0230749
20.8683 0.00610674
20.891 0.0601044
20.9138 0.039786
20.9366 0.0553704
20.9594 0.0882361
20.9822 0.00230856
21.0049 -0.0147459
21.0277 -0.0236857
21.0505 0.0194319
21.0733 0.0518078
21.0961 0.0318663
21.1189 0.019848
21.1416 0.0188702
21.1644 0.0423831
21.1872 0.045781
21.21 0.0552156
21.2328 -0.0235299
21.2556 0.0044703
21.2783 0.0274082
21.3011 -0.0258367
21.3239 0.0245206
21.3467 0.0612005
21.3695 0.0441172
21.3923 0.0115272
21.415 -0.00321078
21.4378 0.0221245
21.4606 -0.00109891
21.4834 0.0260079
21.5062 -0.00394434
21.529 -0.00464341
21.5517 -0.00378579
21.5745 -0.0154057
21.5973 -0.00554329
21.6201 -0.00572148
21.6429 -0.0196744
21.6657 0.00138593
21.6884 -0.0663423
21.7112 -0.0646277
21.734 -0.00768665
21.7568 -0.039752
21.7796 -0.0608566
21.8023 -0.0673449
21.8251 -0.0611298
21.8479 -0.0117204
21.8707 -0.0114429
21.8935 0.0395
21.9163 -0.0136993
21.939 0.0123863
21.9618 -0.0234953
21.9846 -0.0582486
