# xPDFsuite Configuration #
[PDF]
wavelength = 0.1
dataformat = QA
inputfile = C_Tatania6-18.5-average.chi
backgroundfile = C_Tatania4-0.0-average.chi
mode = xray
bgscale = 0.985200981969
composition = TiO2
outputtype = sq
qmaxinst = 22.0
qmin = 0.0
qmax = 19.7626
rmax = 60.0
rmin = 0.0
rstep = 0.01
rpoly = 1.68

[Misc]
inputdir = /Users/sst/PycharmProjects/pdf-data-reduction-tutorial/notebooks/data/chi_bkgsub_false
savedir = /Users/sst/PycharmProjects/pdf-data-reduction-tutorial/notebooks/data/processed
backgroundfilefull = /Users/sst/PycharmProjects/pdf-data-reduction-tutorial/notebooks/data/chi_bkgsub_false/C_Tatania4-0.0-average.chi

#### start data
#S 1
#L Q($\AA^{-1}$)  S(a.u.)
0.0219978 -0.781471
0.0447806 -0.712222
0.0675634 -0.646388
0.0903462 -0.584834
0.113129 -0.5475
0.135912 -0.492253
0.158695 -0.454842
0.181477 -0.38664
0.20426 -0.339844
0.227043 -0.263847
0.249826 -0.222532
0.272609 -0.15549
0.295391 0.0408371
0.318174 0.372651
0.340957 0.716524
0.36374 1.08121
0.386523 0.109861
0.409305 0.593491
0.432088 0.612724
0.454871 0.348352
0.477654 0.369878
0.500436 0.390446
0.523219 0.41083
0.546002 0.453008
0.568785 0.509855
0.591568 0.569229
0.61435 0.668197
0.637133 0.57829
0.659916 0.551872
0.682699 0.544564
0.705482 0.582599
0.728264 0.669203
0.751047 0.760281
0.77383 0.806366
0.796613 0.823046
0.819396 0.849259
0.842178 0.85121
0.864961 0.846276
0.887744 0.868205
0.910527 0.886324
0.93331 0.899335
0.956092 0.901895
0.978875 0.910805
1.00166 0.927972
1.02444 0.945787
1.04722 0.955617
1.07001 0.952727
1.09279 0.969241
1.11557 0.984004
1.13835 0.997163
1.16114 1.00721
1.18392 1.03656
1.2067 1.06222
1.22949 1.09979
1.25227 1.1261
1.27505 1.1485
1.29783 1.16754
1.32062 1.18303
1.3434 1.21401
1.36618 1.2448
1.38897 1.26132
1.41175 1.27696
1.43453 1.26515
1.45731 1.22785
1.4801 1.17772
1.50288 1.1531
1.52566 1.16259
1.54844 1.17657
1.57123 1.19185
1.59401 1.22759
1.61679 1.29323
1.63958 1.37979
1.66236 1.56863
1.68514 1.9491
1.70792 2.6359
1.73071 3.61718
1.75349 4.61136
1.77627 5.21682
1.79906 5.09588
1.82184 4.29377
1.84462 3.18327
1.8674 2.19603
1.89019 1.52123
1.91297 1.09756
1.93575 0.854186
1.95854 0.709297
1.98132 0.616457
2.0041 0.553135
2.02688 0.502149
2.04967 0.443185
2.07245 0.351626
2.09523 0.182484
2.11801 -0.135097
2.1408 -0.445789
2.16358 -0.777589
2.18636 -0.735668
2.20915 -0.394662
2.23193 -0.106935
2.25471 0.0156306
2.27749 0.0311805
2.30028 0.0161051
2.32306 -0.00339676
2.34584 -0.032575
2.36863 -0.0557664
2.39141 -0.0952336
2.41419 -0.173597
2.43697 -0.321103
2.45976 -0.578548
2.48254 -0.77777
2.50532 -0.68951
2.52811 -0.290569
2.55089 0.230131
2.57367 0.733119
2.59645 1.17758
2.61924 1.55489
2.64202 1.73818
2.6648 1.65237
2.68758 1.41052
2.71037 1.12612
2.73315 0.906263
2.75593 0.742001
2.77872 0.626213
2.8015 0.555183
2.82428 0.534934
2.84706 0.558808
2.86985 0.469658
2.89263 0.376058
2.91541 0.34063
2.9382 0.325368
2.96098 0.311144
2.98376 0.286175
3.00654 0.231546
3.02933 0.189596
3.05211 0.180356
3.07489 0.213077
3.09767 0.258969
3.12046 0.299735
3.14324 0.320267
3.16602 0.338233
3.18881 0.440805
3.21159 0.732485
3.23437 1.19895
3.25715 1.78365
3.27994 2.39502
3.30272 2.78966
3.3255 2.76588
3.34829 2.32952
3.37107 1.73205
3.39385 1.22465
3.41663 0.863512
3.43942 0.626805
3.4622 0.40582
3.48498 0.143035
3.50777 -0.169826
3.53055 -0.331622
3.55333 -0.157814
3.57611 0.310846
3.5989 0.867224
3.62168 1.44915
3.64446 2.13577
3.66724 2.86313
3.69003 3.46141
3.71281 3.80382
3.73559 3.82334
3.75838 3.54498
3.78116 3.06665
3.80394 2.48788
3.82672 1.92784
3.84951 1.50728
3.87229 1.25237
3.89507 1.15691
3.91786 1.04168
3.94064 0.933151
3.96342 0.85256
3.9862 0.816351
4.00899 0.763323
4.03177 0.736247
4.05455 0.688076
4.07733 0.570687
4.10012 0.400624
4.1229 0.266133
4.14568 0.403482
4.16847 0.945417
4.19125 1.68973
4.21403 2.33651
4.23681 2.61381
4.2596 2.54305
4.28238 2.20038
4.30516 1.76145
4.32795 1.39257
4.35073 1.09344
4.37351 0.886258
4.39629 0.756014
4.41908 0.694941
4.44186 0.661354
4.46464 0.640418
4.48743 0.633701
4.51021 0.669452
4.53299 0.803997
4.55577 1.03396
4.57856 1.338
4.60134 1.6079
4.62412 1.77434
4.6469 1.83117
4.66969 1.81623
4.69247 1.68513
4.71525 1.42907
4.73804 1.16555
4.76082 0.940968
4.7836 0.819606
4.80638 0.770347
4.82917 0.809805
4.85195 0.897803
4.87473 1.09632
4.89752 1.37057
4.9203 1.71501
4.94308 2.02078
4.96586 2.13889
4.98865 2.02463
5.01143 1.74564
5.03421 1.39229
5.057 1.07627
5.07978 0.856624
5.10256 0.63567
5.12534 0.499534
5.14813 0.41176
5.17091 0.371307
5.19369 0.356563
5.21647 0.352001
5.23926 0.423397
5.26204 0.520329
5.28482 0.617338
5.30761 0.770632
5.33039 0.96989
5.35317 1.17853
5.37595 1.25231
5.39874 1.13718
5.42152 0.835508
5.4443 0.497079
5.46709 0.235156
5.48987 0.072548
5.51265 -0.0516343
5.53543 -0.128658
5.55822 -0.234323
5.581 -0.33311
5.60378 -0.376774
5.62656 -0.334902
5.64935 -0.222676
5.67213 -0.151919
5.69491 -0.0830656
5.7177 -0.0379949
5.74048 -0.01203
5.76326 -0.00643396
5.78604 0.000739467
5.80883 0.0314138
5.83161 0.148506
5.85439 0.269268
5.87718 0.463176
5.89996 0.708613
5.92274 0.990978
5.94552 1.23787
5.96831 1.44606
5.99109 1.52034
6.01387 1.41433
6.03666 1.19948
6.05944 0.962219
6.08222 0.780084
6.105 0.728244
6.12779 0.72459
6.15057 0.786132
6.17335 0.887339
6.19613 0.938806
6.21892 0.928175
6.2417 0.928274
6.26448 0.881788
6.28727 0.777921
6.31005 0.67039
6.33283 0.56916
6.35561 0.454616
6.3784 0.367857
6.40118 0.333881
6.42396 0.287364
6.44675 0.283151
6.46953 0.320034
6.49231 0.416566
6.51509 0.62211
6.53788 0.88911
6.56066 1.1068
6.58344 1.22647
6.60622 1.25974
6.62901 1.18789
6.65179 1.01477
6.67457 0.820383
6.69736 0.70926
6.72014 0.666278
6.74292 0.759924
6.7657 0.967898
6.78849 1.19647
6.81127 1.43192
6.83405 1.58231
6.85684 1.61391
6.87962 1.49673
6.9024 1.42861
6.92518 1.47368
6.94797 1.69379
6.97075 1.99971
6.99353 2.27163
7.01632 2.31237
7.0391 2.183
7.06188 2.02568
7.08466 1.96965
7.10745 1.92925
7.13023 1.87641
7.15301 1.77747
7.17579 1.58632
7.19858 1.36795
7.22136 1.18053
7.24414 1.06122
7.26693 1.027
7.28971 1.05834
7.31249 1.06546
7.33527 1.16151
7.35806 1.28129
7.38084 1.41832
7.40362 1.54908
7.42641 1.59103
7.44919 1.53708
7.47197 1.46706
7.49475 1.42707
7.51754 1.41762
7.54032 1.49862
7.5631 1.57224
7.58589 1.57314
7.60867 1.52484
7.63145 1.40527
7.65423 1.2843
7.67702 1.20502
7.6998 1.19293
7.72258 1.23626
7.74536 1.28806
7.76815 1.39752
7.79093 1.49584
7.81371 1.55323
7.8365 1.57946
7.85928 1.55435
7.88206 1.49331
7.90484 1.31793
7.92763 1.0975
7.95041 0.942142
7.97319 0.866737
7.99598 0.77375
8.01876 0.765206
8.04154 0.789203
8.06432 0.782446
8.08711 0.783321
8.10989 0.776689
8.13267 0.768724
8.15545 0.750306
8.17824 0.709918
8.20102 0.730175
8.2238 0.777265
8.24659 0.830787
8.26937 0.907906
8.29215 0.998616
8.31493 1.0882
8.33772 1.13887
8.3605 1.29603
8.38328 1.49243
8.40607 1.65676
8.42885 1.75074
8.45163 1.67427
8.47441 1.47184
8.4972 1.27233
8.51998 1.14503
8.54276 1.06474
8.56555 0.971284
8.58833 0.848553
8.61111 0.784317
8.63389 0.712819
8.65668 0.645689
8.67946 0.585333
8.70224 0.551374
8.72502 0.510972
8.74781 0.533739
8.77059 0.552717
8.79337 0.51825
8.81616 0.549497
8.83894 0.653312
8.86172 0.823643
8.8845 0.909962
8.90729 0.990526
8.93007 1.03809
8.95285 1.006
8.97564 0.954354
8.99842 0.873152
9.0212 0.800346
9.04398 0.779223
9.06677 0.769375
9.08955 0.702202
9.11233 0.618593
9.13511 0.527615
9.1579 0.463738
9.18068 0.452613
9.20346 0.400495
9.22625 0.412313
9.24903 0.463713
9.27181 0.550585
9.29459 0.670408
9.31738 0.782734
9.34016 0.820152
9.36294 0.846072
9.38573 0.842328
9.40851 0.800799
9.43129 0.741758
9.45407 0.70953
9.47686 0.789288
9.49964 0.840765
9.52242 0.883646
9.54521 0.858521
9.56799 0.794794
9.59077 0.75515
9.61355 0.743279
9.63634 0.735632
9.65912 0.70512
9.6819 0.656272
9.70468 0.619056
9.72747 0.622397
9.75025 0.60453
9.77303 0.533561
9.79582 0.496959
9.8186 0.456111
9.84138 0.448849
9.86416 0.512111
9.88695 0.575279
9.90973 0.663096
9.93251 0.681026
9.9553 0.670916
9.97808 0.667018
10.0009 0.707843
10.0236 0.733683
10.0464 0.767543
10.0692 0.790742
10.092 0.814954
10.1148 0.804593
10.1376 0.818647
10.1603 0.853412
10.1831 0.906304
10.2059 0.949131
10.2287 0.988189
10.2515 1.02087
10.2743 1.00902
10.297 0.965928
10.3198 0.974124
10.3426 0.969397
10.3654 0.959268
10.3882 0.998755
10.411 1.11874
10.4337 1.23272
10.4565 1.3144
10.4793 1.33288
10.5021 1.3529
10.5249 1.38482
10.5476 1.49319
10.5704 1.60983
10.5932 1.70203
10.616 1.77534
10.6388 1.78437
10.6616 1.74562
10.6843 1.69086
10.7071 1.63857
10.7299 1.62513
10.7527 1.61748
10.7755 1.56904
10.7983 1.46148
10.821 1.35134
10.8438 1.25746
10.8666 1.15444
10.8894 1.06326
10.9122 0.997225
10.935 0.957222
10.9577 0.952474
10.9805 1.01862
11.0033 1.09341
11.0261 1.15606
11.0489 1.15642
11.0717 1.1793
11.0944 1.20637
11.1172 1.16303
11.14 1.10791
11.1628 1.01563
11.1856 0.926796
11.2083 0.876944
11.2311 0.873266
11.2539 0.841112
11.2767 0.805991
11.2995 0.80873
11.3223 0.79565
11.345 0.809503
11.3678 0.765827
11.3906 0.75483
11.4134 0.77634
11.4362 0.841737
11.459 0.891922
11.4817 0.926587
11.5045 0.990249
11.5273 1.07198
11.5501 1.15193
11.5729 1.23298
11.5957 1.24137
11.6184 1.24142
11.6412 1.32604
11.664 1.34593
11.6868 1.37437
11.7096 1.3754
11.7324 1.35583
11.7551 1.27274
11.7779 1.22558
11.8007 1.14064
11.8235 1.10968
11.8463 1.11114
11.8691 1.12925
11.8918 1.17502
11.9146 1.17101
11.9374 1.18005
11.9602 1.19107
11.983 1.18221
12.0057 1.21889
12.0285 1.23236
12.0513 1.21424
12.0741 1.19173
12.0969 1.20593
12.1197 1.2104
12.1424 1.19442
12.1652 1.17113
12.188 1.18056
12.2108 1.15884
12.2336 1.17365
12.2564 1.14463
12.2791 1.0844
12.3019 1.08724
12.3247 1.08332
12.3475 1.07712
12.3703 1.08625
12.3931 1.06965
12.4158 1.05264
12.4386 1.04082
12.4614 1.06434
12.4842 1.07946
12.507 1.03361
12.5298 1.01263
12.5525 0.988038
12.5753 0.92858
12.5981 0.914605
12.6209 0.891999
12.6437 0.863034
12.6664 0.828907
12.6892 0.753281
12.712 0.67094
12.7348 0.650209
12.7576 0.677305
12.7804 0.648996
12.8031 0.662997
12.8259 0.708214
12.8487 0.72126
12.8715 0.756255
12.8943 0.779056
12.9171 0.78933
12.9398 0.809448
12.9626 0.801328
12.9854 0.8039
13.0082 0.772456
13.031 0.750277
13.0538 0.762639
13.0765 0.792785
13.0993 0.809689
13.1221 0.764732
13.1449 0.767897
13.1677 0.779912
13.1905 0.798067
13.2132 0.848934
13.236 0.912725
13.2588 0.942367
13.2816 0.958301
13.3044 0.993847
13.3271 1.05079
13.3499 1.07859
13.3727 1.06455
13.3955 1.09242
13.4183 1.08238
13.4411 1.07353
13.4638 1.01963
13.4866 0.975531
13.5094 0.916781
13.5322 0.850021
13.555 0.83908
13.5778 0.83653
13.6005 0.881049
13.6233 0.878509
13.6461 0.861415
13.6689 0.866512
13.6917 0.911516
13.7145 0.902649
13.7372 0.883951
13.76 0.857828
13.7828 0.864288
13.8056 0.883221
13.8284 0.871934
13.8512 0.902623
13.8739 0.889718
13.8967 0.902551
13.9195 0.879035
13.9423 0.888091
13.9651 0.889169
13.9878 0.920245
14.0106 0.947355
14.0334 0.979983
14.0562 0.983491
14.079 0.966048
14.1018 0.927515
14.1245 0.948053
14.1473 1.02947
14.1701 1.01254
14.1929 1.07375
14.2157 1.12499
14.2385 1.1317
14.2612 1.07589
14.284 1.05864
14.3068 1.08775
14.3296 1.0896
14.3524 1.04164
14.3752 1.02391
14.3979 0.969504
14.4207 0.966834
14.4435 1.0067
14.4663 1.02768
14.4891 1.05102
14.5119 1.03799
14.5346 1.01422
14.5574 1.02928
14.5802 1.01375
14.603 1.04363
14.6258 1.0513
14.6486 1.0062
14.6713 1.02242
14.6941 1.01779
14.7169 1.02651
14.7397 1.06628
14.7625 1.05809
14.7852 1.11454
14.808 1.16816
14.8308 1.18017
14.8536 1.15744
14.8764 1.12061
14.8992 1.08951
14.9219 1.08264
14.9447 1.08894
14.9675 1.09486
14.9903 1.10436
15.0131 1.14139
15.0359 1.10138
15.0586 1.04326
15.0814 1.05395
15.1042 1.06905
15.127 1.09374
15.1498 1.02917
15.1726 0.994759
15.1953 1.01403
15.2181 0.9971
15.2409 0.997878
15.2637 1.00989
15.2865 1.04387
15.3093 0.993214
15.332 0.975135
15.3548 0.967719
15.3776 0.947853
15.4004 0.950748
15.4232 0.948186
15.4459 0.929171
15.4687 0.918388
15.4915 0.894662
15.5143 0.918059
15.5371 0.990383
15.5599 1.0179
15.5826 1.01278
15.6054 1.0122
15.6282 1.0394
15.651 1.06041
15.6738 1.04587
15.6966 1.00482
15.7193 0.991228
15.7421 0.981231
15.7649 0.96125
15.7877 0.950271
15.8105 0.943001
15.8333 1.00444
15.856 0.984516
15.8788 0.973515
15.9016 1.01802
15.9244 1.03022
15.9472 1.05286
15.97 1.00736
15.9927 0.978352
16.0155 0.99602
16.0383 0.989108
16.0611 0.998151
16.0839 1.02084
16.1066 1.09894
16.1294 1.07711
16.1522 1.01917
16.175 0.975175
16.1978 0.966076
16.2206 1.04184
16.2433 1.0898
16.2661 1.06308
16.2889 1.09806
16.3117 1.14729
16.3345 1.10229
16.3573 1.07995
16.38 1.10685
16.4028 1.09899
16.4256 1.12792
16.4484 1.13113
16.4712 1.16185
16.494 1.11859
16.5167 1.12469
16.5395 1.11214
16.5623 1.17508
16.5851 1.16383
16.6079 1.13172
16.6307 1.12187
16.6534 1.14176
16.6762 1.08038
16.699 1.0965
16.7218 1.12597
16.7446 1.08873
16.7674 1.08398
16.7901 1.09932
16.8129 1.10891
16.8357 1.05713
16.8585 1.05178
16.8813 1.05169
16.904 1.00225
16.9268 0.983376
16.9496 0.977469
16.9724 0.954286
16.9952 0.968005
17.018 0.931164
17.0407 0.946131
17.0635 0.966428
17.0863 0.912487
17.1091 0.920096
17.1319 0.99151
17.1547 0.946534
17.1774 0.855757
17.2002 0.853066
17.223 0.907114
17.2458 0.905882
17.2686 0.885603
17.2914 0.904751
17.3141 0.902461
17.3369 0.859109
17.3597 0.877151
17.3825 0.850506
17.4053 0.845952
17.4281 0.851869
17.4508 0.892875
17.4736 0.890204
17.4964 0.876186
17.5192 0.876558
17.542 0.85668
17.5647 0.904237
17.5875 0.890657
17.6103 0.929808
17.6331 0.910515
17.6559 0.922958
17.6787 0.908857
17.7014 0.918431
17.7242 0.857705
17.747 0.854344
17.7698 0.904392
17.7926 0.858627
17.8154 0.864352
17.8381 0.920722
17.8609 0.960572
17.8837 0.995153
17.9065 0.927156
17.9293 0.937104
17.9521 0.940141
17.9748 0.938337
17.9976 0.993632
18.0204 0.969151
18.0432 1.02607
18.066 1.02862
18.0888 0.945358
18.1115 0.996138
18.1343 0.969449
18.1571 0.927563
18.1799 0.970578
18.2027 0.929714
18.2254 0.9564
18.2482 0.929075
18.271 0.931646
18.2938 0.958935
18.3166 0.987821
18.3394 0.978129
18.3621 1.02528
18.3849 1.03843
18.4077 1.05156
18.4305 1.02714
18.4533 1.06074
18.4761 1.06951
18.4988 1.04175
18.5216 1.05515
18.5444 1.09473
18.5672 1.0429
18.59 1.05376
18.6128 1.07406
18.6355 1.05164
18.6583 1.06391
18.6811 1.08718
18.7039 1.08182
18.7267 1.09518
18.7495 1.1355
18.7722 1.11783
18.795 1.07546
18.8178 1.10898
18.8406 1.06388
18.8634 1.05296
18.8862 0.968089
18.9089 0.99095
18.9317 1.03245
18.9545 1.0302
18.9773 1.02121
19.0001 1.091
19.0228 1.06375
19.0456 1.05146
19.0684 1.00549
19.0912 0.965298
19.114 0.993141
19.1368 1.05788
19.1595 0.981108
19.1823 1.05488
19.2051 1.04897
19.2279 1.03362
19.2507 1.0321
19.2735 1.05743
19.2962 1.04845
19.319 1.07565
19.3418 1.08753
19.3646 1.10046
19.3874 1.03268
19.4102 1.00438
19.4329 1.05654
19.4557 1.08892
19.4785 1.06359
19.5013 1.05466
19.5241 1.07035
19.5469 1.07905
19.5696 1.03182
19.5924 1.0261
19.6152 0.923936
19.638 1.01097
19.6608 1.03665
19.6835 1.02304
19.7063 0.974892
19.7291 0.992351
19.7519 0.952244
