[DEFAULT]

version = diffpy.pdfgetx-2.1.0

# input and output specifications
dataformat = QA
backgroundfile =
outputtype = sq

# PDF calculation setup
mode = xray
composition = Ni
bgscale = 1
rpoly = 2
qmaxinst = 25
qmin = 0
qmax = 24
rmin = 2
rmax = 60
rstep = 0.01

# End of config --------------------------------------------------------------

#### start data
#S 1
#L Q(Ã…$^{-1}$)  S(a.u.)
0 -0.714864
0.0228872 -0.605519
0.0457744 -0.502342
0.0686616 -0.404066
0.0915488 -0.312163
0.114436 -0.222984
0.137323 -0.138983
0.16021 -0.0588809
0.183098 0.0184532
0.205985 0.0904121
0.228872 0.159965
0.251759 0.226513
0.274646 0.292271
0.297534 0.374575
0.320421 0.472531
0.343308 0.587909
0.366195 0.650765
0.389082 0.660535
0.41197 0.660963
0.434857 0.679459
0.457744 0.710576
0.480631 0.74862
0.503518 0.785743
0.526405 0.819483
0.549293 0.851172
0.57218 0.883623
0.595067 0.915979
0.617954 0.945473
0.640841 0.976907
0.663729 1.00733
0.686616 1.03439
0.709503 1.05784
0.73239 1.07833
0.755277 1.0958
0.778165 1.11042
0.801052 1.12123
0.823939 1.12906
0.846826 1.13558
0.869713 1.14194
0.892601 1.14856
0.915488 1.15533
0.938375 1.16296
0.961262 1.17076
0.984149 1.17772
1.00704 1.18392
1.02992 1.18771
1.05281 1.18885
1.0757 1.18844
1.09859 1.18762
1.12147 1.18654
1.14436 1.18557
1.16725 1.18424
1.19013 1.18142
1.21302 1.1781
1.23591 1.17566
1.2588 1.17297
1.28168 1.16948
1.30457 1.16637
1.32746 1.16278
1.35034 1.15801
1.37323 1.1521
1.39612 1.14448
1.41901 1.13728
1.44189 1.12826
1.46478 1.11857
1.48767 1.10898
1.51055 1.09743
1.53344 1.08452
1.55633 1.07084
1.57922 1.05671
1.6021 1.04162
1.62499 1.02654
1.64788 1.01218
1.67077 0.999306
1.69365 0.98657
1.71654 0.975313
1.73943 0.965405
1.76231 0.956132
1.7852 0.947942
1.80809 0.93941
1.83098 0.930832
1.85386 0.921646
1.87675 0.911996
1.89964 0.902334
1.92252 0.892713
1.94541 0.883214
1.9683 0.873731
1.99119 0.864566
2.01407 0.855775
2.03696 0.846749
2.05985 0.837825
2.08273 0.830128
2.10562 0.822662
2.12851 0.816386
2.1514 0.810471
2.17428 0.80422
2.19717 0.798088
2.22006 0.791869
2.24295 0.786086
2.26583 0.780802
2.28872 0.776241
2.31161 0.77159
2.33449 0.767468
2.35738 0.763336
2.38027 0.759668
2.40316 0.756366
2.42604 0.753785
2.44893 0.751313
2.47182 0.74937
2.4947 0.747508
2.51759 0.745642
2.54048 0.74451
2.56337 0.743144
2.58625 0.74186
2.60914 0.741198
2.63203 0.740733
2.65491 0.740609
2.6778 0.740757
2.70069 0.740764
2.72358 0.741086
2.74646 0.741478
2.76935 0.742137
2.79224 0.742901
2.81512 0.744817
2.83801 0.746874
2.8609 0.75036
2.88379 0.754589
2.90667 0.76105
2.92956 0.772583
2.95245 0.79482
2.97534 0.846618
2.99822 0.990093
3.02111 1.4125
3.044 2.44355
3.06688 3.74286
3.08977 4.34558
3.11266 3.57939
3.13555 2.24479
3.15843 1.34676
3.18132 0.978671
3.20421 0.848743
3.22709 0.803846
3.24998 0.783484
3.27287 0.772542
3.29576 0.765889
3.31864 0.762078
3.34153 0.760235
3.36442 0.759927
3.3873 0.762123
3.41019 0.76776
3.43308 0.780951
3.45597 0.811887
3.47885 0.894166
3.50174 1.15144
3.52463 1.73753
3.54752 2.48391
3.5704 2.71268
3.59329 2.18953
3.61618 1.4589
3.63906 1.02509
3.66195 0.857
3.68484 0.796961
3.70773 0.772259
3.73061 0.762262
3.7535 0.757653
3.77639 0.755498
3.79927 0.754433
3.82216 0.752963
3.84505 0.752092
3.86794 0.751331
3.89082 0.751109
3.91371 0.75163
3.9366 0.75174
3.95948 0.752478
3.98237 0.753159
4.00526 0.753042
4.02815 0.753026
4.05103 0.753458
4.07392 0.754586
4.09681 0.755311
4.1197 0.756249
4.14258 0.75738
4.16547 0.758242
4.18836 0.75932
4.21124 0.760588
4.23413 0.761244
4.25702 0.762214
4.27991 0.76293
4.30279 0.76415
4.32568 0.765238
4.34857 0.766069
4.37145 0.767113
4.39434 0.768105
4.41723 0.769456
4.44012 0.770319
4.463 0.771189
4.48589 0.772722
4.50878 0.7742
4.53166 0.776006
4.55455 0.777127
4.57744 0.778491
4.60033 0.779668
4.62321 0.781441
4.6461 0.783155
4.66899 0.78484
4.69187 0.786517
4.71476 0.788544
4.73765 0.791438
4.76054 0.793581
4.78342 0.795783
4.80631 0.799289
4.8292 0.802272
4.85209 0.80673
4.87497 0.813491
4.89786 0.82474
4.92075 0.847391
4.94363 0.899984
4.96652 1.04426
4.98941 1.46935
5.0123 2.19482
5.03518 2.77215
5.05807 2.54473
5.08096 1.8399
5.10384 1.2528
5.12673 0.991983
5.14962 0.892058
5.17251 0.857153
5.19539 0.841882
5.21828 0.835406
5.24117 0.831718
5.26405 0.829037
5.28694 0.827649
5.30983 0.827269
5.33272 0.826687
5.3556 0.826285
5.37849 0.826153
5.40138 0.825941
5.42427 0.825929
5.44715 0.825888
5.47004 0.825749
5.49293 0.82611
5.51581 0.826783
5.5387 0.827565
5.56159 0.829402
5.58448 0.830534
5.60736 0.831328
5.63025 0.833211
5.65314 0.836168
5.67602 0.839239
5.69891 0.842314
5.7218 0.846765
5.74469 0.853859
5.76757 0.867488
5.79046 0.893609
5.81335 0.954799
5.83623 1.12849
5.85912 1.61278
5.88201 2.55706
5.9049 3.37548
5.92778 3.25192
5.95067 2.29096
5.97356 1.45444
5.99645 1.07485
6.01933 0.940249
6.04222 0.894534
6.06511 0.884236
6.08799 0.904702
6.11088 0.986213
6.13377 1.18435
6.15666 1.46315
6.17954 1.59304
6.20243 1.40006
6.22532 1.09821
6.2482 0.932192
6.27109 0.864359
6.29398 0.837489
6.31687 0.826232
6.33975 0.820883
6.36264 0.815948
6.38553 0.811647
6.40841 0.809064
6.4313 0.806662
6.45419 0.80527
6.47708 0.803185
6.49996 0.801084
6.52285 0.799635
6.54574 0.79845
6.56862 0.797651
6.59151 0.797236
6.6144 0.795882
6.63729 0.795006
6.66017 0.793668
6.68306 0.792858
6.70595 0.792089
6.72884 0.791222
6.75172 0.790687
6.77461 0.789838
6.7975 0.789938
6.82038 0.789085
6.84327 0.788635
6.86616 0.789779
6.88905 0.790026
6.91193 0.789896
6.93482 0.790151
6.95771 0.791281
6.98059 0.793276
7.00348 0.79621
7.02637 0.803391
7.04926 0.82481
7.07214 0.881415
7.09503 0.99994
7.11792 1.14603
7.1408 1.17054
7.16369 1.04545
7.18658 0.906267
7.20947 0.837606
7.23235 0.81195
7.25524 0.802477
7.27813 0.798891
7.30102 0.797788
7.3239 0.798239
7.34679 0.799167
7.36968 0.799668
7.39256 0.801284
7.41545 0.802895
7.43834 0.803663
7.46123 0.804617
7.48411 0.806898
7.507 0.809802
7.52989 0.812595
7.55277 0.815115
7.57566 0.818926
7.59855 0.826241
7.62144 0.835656
7.64432 0.849398
7.66721 0.877823
7.6901 0.952063
7.71298 1.15346
7.73587 1.61045
7.75876 2.1671
7.78165 2.21648
7.80453 1.73909
7.82742 1.24075
7.85031 1.01639
7.87319 0.958084
7.89608 1.00291
7.91897 1.20329
7.94186 1.63927
7.96474 2.09029
7.98763 2.04984
8.01052 1.57186
8.03341 1.14176
8.05629 0.956159
8.07918 0.888972
8.10207 0.861964
8.12495 0.850527
8.14784 0.844051
8.17073 0.839627
8.19362 0.838142
8.2165 0.837394
8.23939 0.835651
8.26228 0.833646
8.28516 0.831774
8.30805 0.832031
8.33094 0.833055
8.35383 0.833721
8.37671 0.832377
8.3996 0.833618
8.42249 0.834103
8.44537 0.835228
8.46826 0.836937
8.49115 0.836761
8.51404 0.840245
8.53692 0.843153
8.55981 0.845014
8.5827 0.850809
8.60559 0.860345
8.62847 0.879585
8.65136 0.928186
8.67425 1.06482
8.69713 1.37711
8.72002 1.79073
8.74291 1.87957
8.7658 1.53391
8.78868 1.15096
8.81157 0.964878
8.83446 0.897896
8.85734 0.872278
8.88023 0.861833
8.90312 0.856597
8.92601 0.853364
8.94889 0.852115
8.97178 0.85216
8.99467 0.851556
9.01755 0.849923
9.04044 0.850085
9.06333 0.853342
9.08622 0.854779
9.1091 0.857927
9.13199 0.86704
9.15488 0.885032
9.17777 0.929615
9.20065 1.05201
9.22354 1.35482
9.24643 1.81258
9.26931 2.01066
9.2922 1.67467
9.31509 1.23043
9.33798 0.99492
9.36086 0.905736
9.38375 0.872189
9.40664 0.85728
9.42952 0.849699
9.45241 0.846442
9.4753 0.843934
9.49819 0.842583
9.52107 0.841237
9.54396 0.839085
9.56685 0.837382
9.58973 0.835186
9.61262 0.834177
9.63551 0.833301
9.6584 0.835169
9.68128 0.835697
9.70417 0.83579
9.72706 0.835711
9.74994 0.83476
9.77283 0.834331
9.79572 0.835301
9.81861 0.836778
9.84149 0.83799
9.86438 0.838798
9.88727 0.84019
9.91016 0.843163
9.93304 0.846357
9.95593 0.849615
9.97882 0.856277
10.0017 0.871083
10.0246 0.911626
10.0475 1.00364
10.0704 1.13109
10.0933 1.16714
10.1161 1.06981
10.139 0.955228
10.1619 0.898403
10.1848 0.87704
10.2077 0.870865
10.2306 0.870545
10.2535 0.870669
10.2764 0.87047
10.2992 0.873208
10.3221 0.874926
10.345 0.877873
10.3679 0.883123
10.3908 0.889455
10.4137 0.900132
10.4366 0.919747
10.4594 0.964321
10.4823 1.08469
10.5052 1.38581
10.5281 1.87214
10.551 2.15035
10.5739 1.84511
10.5968 1.37101
10.6197 1.13489
10.6425 1.13667
10.6654 1.32337
10.6883 1.57275
10.7112 1.57082
10.7341 1.30024
10.757 1.06259
10.7799 0.957363
10.8028 0.919917
10.8256 0.904288
10.8485 0.89656
10.8714 0.890312
10.8943 0.88677
10.9172 0.882907
10.9401 0.880938
10.963 0.879338
10.9859 0.877802
11.0087 0.875969
11.0316 0.876278
11.0545 0.876822
11.0774 0.875857
11.1003 0.876363
11.1232 0.876718
11.1461 0.879371
11.169 0.886216
11.1918 0.906409
11.2147 0.961874
11.2376 1.09193
11.2605 1.27136
11.2834 1.33162
11.3063 1.18583
11.3292 1.01484
11.352 0.925509
11.3749 0.892234
11.3978 0.880341
11.4207 0.8756
11.4436 0.873125
11.4665 0.87114
11.4894 0.87214
11.5123 0.874275
11.5351 0.876809
11.558 0.880428
11.5809 0.886228
11.6038 0.901311
11.6267 0.944278
11.6496 1.04767
11.6725 1.22018
11.6954 1.3123
11.7182 1.2104
11.7411 1.05711
11.764 1.00497
11.7869 1.0661
11.8098 1.19808
11.8327 1.25881
11.8556 1.15039
11.8785 1.0062
11.9013 0.926156
11.9242 0.893444
11.9471 0.879526
11.97 0.874655
11.9929 0.872684
12.0158 0.870115
12.0387 0.870612
12.0616 0.869243
12.0844 0.868923
12.1073 0.868551
12.1302 0.86747
12.1531 0.865772
12.176 0.869375
12.1989 0.870448
12.2218 0.870451
12.2446 0.874202
12.2675 0.880705
12.2904 0.893178
12.3133 0.921512
12.3362 0.964111
12.3591 0.983802
12.382 0.954782
12.4049 0.914221
12.4277 0.892716
12.4506 0.884961
12.4735 0.883989
12.4964 0.884174
12.5193 0.886319
12.5422 0.890822
12.5651 0.893597
12.588 0.898227
12.6108 0.905519
12.6337 0.921457
12.6566 0.961868
12.6795 1.06269
12.7024 1.26928
12.7253 1.49248
12.7482 1.49453
12.7711 1.27441
12.7939 1.10521
12.8168 1.09139
12.8397 1.1736
12.8626 1.22012
12.8855 1.1389
12.9084 1.01924
12.9313 0.952288
12.9542 0.927907
12.977 0.920046
12.9999 0.915528
13.0228 0.912995
13.0457 0.912539
13.0686 0.910993
13.0915 0.910394
13.1144 0.913399
13.1372 0.914576
13.1601 0.91471
13.183 0.917801
13.2059 0.923291
13.2288 0.931319
13.2517 0.947117
13.2746 0.9914
13.2975 1.09952
13.3203 1.28766
13.3432 1.4297
13.3661 1.34692
13.389 1.14852
13.4119 1.01462
13.4348 0.963077
13.4577 0.946765
13.4806 0.93992
13.5034 0.938233
13.5263 0.936882
13.5492 0.937427
13.5721 0.943777
13.595 0.959329
13.6179 0.999876
13.6408 1.10307
13.6637 1.31616
13.6865 1.55743
13.7094 1.56918
13.7323 1.33817
13.7552 1.10937
13.7781 0.996262
13.801 0.951574
13.8239 0.935135
13.8468 0.930508
13.8696 0.926419
13.8925 0.922939
13.9154 0.919944
13.9383 0.915677
13.9612 0.915717
13.9841 0.913417
14.007 0.912326
14.0299 0.91184
14.0527 0.909484
14.0756 0.909217
14.0985 0.908136
14.1214 0.909017
14.1443 0.908054
14.1672 0.907528
14.1901 0.911564
14.2129 0.918946
14.2358 0.933962
14.2587 0.946754
14.2816 0.944296
14.3045 0.931699
14.3274 0.920713
14.3503 0.913345
14.3732 0.910935
14.396 0.911599
14.4189 0.91138
14.4418 0.912886
14.4647 0.915445
14.4876 0.919523
14.5105 0.932108
14.5334 0.953413
14.5563 0.999
14.5791 1.0616
14.602 1.09653
14.6249 1.07908
14.6478 1.06609
14.6707 1.12308
14.6936 1.21491
14.7165 1.22745
14.7394 1.13053
14.7622 1.02166
14.7851 0.962709
14.808 0.939962
14.8309 0.929576
14.8538 0.927504
14.8767 0.925227
14.8996 0.92405
14.9225 0.925329
14.9453 0.926821
14.9682 0.927269
14.9911 0.926425
15.014 0.930347
15.0369 0.93895
15.0598 0.957506
15.0827 1.00076
15.1055 1.0695
15.1284 1.12535
15.1513 1.11083
15.1742 1.04051
15.1971 0.981592
15.22 0.952595
15.2429 0.940866
15.2658 0.939828
15.2886 0.939929
15.3115 0.943356
15.3344 0.949752
15.3573 0.963665
15.3802 1.004
15.4031 1.08525
15.426 1.19201
15.4489 1.24223
15.4717 1.19062
15.4946 1.11137
15.5175 1.07822
15.5404 1.07851
15.5633 1.0611
15.5862 1.0191
15.6091 0.980477
15.632 0.956405
15.6548 0.948128
15.6777 0.944651
15.7006 0.941485
15.7235 0.941151
15.7464 0.943494
15.7693 0.942661
15.7922 0.938874
15.8151 0.939308
15.8379 0.942104
15.8608 0.948823
15.8837 0.962304
15.9066 0.985143
15.9295 1.01384
15.9524 1.03594
15.9753 1.02487
15.9981 0.993833
16.021 0.96961
16.0439 0.954509
16.0668 0.952878
16.0897 0.953814
16.1126 0.956204
16.1355 0.963136
16.1584 0.976837
16.1812 1.01274
16.2041 1.08578
16.227 1.18206
16.2499 1.23781
16.2728 1.21288
16.2957 1.16118
16.3186 1.14645
16.3415 1.14868
16.3643 1.12496
16.3872 1.06573
16.4101 1.00733
16.433 0.976992
16.4559 0.962876
16.4788 0.953857
16.5017 0.948986
16.5246 0.944125
16.5474 0.944415
16.5703 0.946251
16.5932 0.946359
16.6161 0.944848
16.639 0.947768
16.6619 0.958328
16.6848 0.978038
16.7077 1.00288
16.7305 1.0187
16.7534 1.0118
16.7763 0.987265
16.7992 0.964395
16.8221 0.94936
16.845 0.944989
16.8679 0.944984
16.8907 0.945942
16.9136 0.949275
16.9365 0.962027
16.9594 0.992714
16.9823 1.03346
17.0052 1.06532
17.0281 1.06878
17.051 1.03483
17.0738 0.992882
17.0967 0.964864
17.1196 0.948132
17.1425 0.943522
17.1654 0.941951
17.1883 0.941272
17.2112 0.942358
17.2341 0.940531
17.2569 0.939585
17.2798 0.939511
17.3027 0.942389
17.3256 0.941317
17.3485 0.940707
17.3714 0.947395
17.3943 0.954439
17.4172 0.965677
17.44 0.98301
17.4629 1.00035
17.4858 1.00441
17.5087 0.992236
17.5316 0.976442
17.5545 0.965053
17.5774 0.958978
17.6003 0.959152
17.6231 0.963848
17.646 0.970675
17.6689 0.989462
17.6918 1.02773
17.7147 1.0782
17.7376 1.11741
17.7605 1.12658
17.7834 1.10936
17.8062 1.08415
17.8291 1.05682
17.852 1.03761
17.8749 1.01653
17.8978 0.995996
17.9207 0.981247
17.9436 0.970976
17.9664 0.969916
17.9893 0.968534
18.0122 0.970143
18.0351 0.969222
18.058 0.97456
18.0809 0.977693
18.1038 0.987663
18.1267 1.0131
18.1495 1.0533
18.1724 1.0886
18.1953 1.09917
18.2182 1.08261
18.2411 1.04845
18.264 1.01347
18.2869 0.990794
18.3098 0.983935
18.3326 0.983344
18.3555 0.988882
18.3784 1.006
18.4013 1.03592
18.4242 1.07064
18.4471 1.0977
18.47 1.10006
18.4929 1.09061
18.5157 1.07032
18.5386 1.04715
18.5615 1.02505
18.5844 1.00761
18.6073 0.991342
18.6302 0.977634
18.6531 0.970315
18.676 0.969186
18.6988 0.968238
18.7217 0.965992
18.7446 0.966431
18.7675 0.966212
18.7904 0.965633
18.8133 0.963622
18.8362 0.962213
18.859 0.962877
18.8819 0.965977
18.9048 0.968555
18.9277 0.967413
18.9506 0.970416
18.9735 0.969244
18.9964 0.969269
19.0193 0.97423
19.0421 0.980658
19.065 0.993654
19.0879 1.0162
19.1108 1.03643
19.1337 1.05268
19.1566 1.072
19.1795 1.0814
19.2024 1.07765
19.2252 1.0658
19.2481 1.04573
19.271 1.01818
19.2939 0.994276
19.3168 0.981895
19.3397 0.974416
19.3626 0.971963
19.3855 0.968931
19.4083 0.969866
19.4312 0.974576
19.4541 0.978469
19.477 0.989889
19.4999 1.00508
19.5228 1.0103
19.5457 1.01157
19.5686 1.00715
19.5914 0.999262
19.6143 0.986035
19.6372 0.975598
19.6601 0.971884
19.683 0.970412
19.7059 0.979524
19.7288 0.988517
19.7516 1.00108
19.7745 1.00771
19.7974 1.00821
19.8203 1.00306
19.8432 0.991432
19.8661 0.97557
19.889 0.970163
19.9119 0.968499
19.9347 0.964634
19.9576 0.966268
19.9805 0.963641
20.0034 0.963624
20.0263 0.962857
20.0492 0.964027
20.0721 0.964822
20.095 0.96616
20.1178 0.969864
20.1407 0.971538
20.1636 0.976293
20.1865 0.977376
20.2094 0.977842
20.2323 0.977036
20.2552 0.979374
20.2781 0.980381
20.3009 0.984972
20.3238 0.994918
20.3467 1.01141
20.3696 1.03668
20.3925 1.05989
20.4154 1.07438
20.4383 1.08536
20.4612 1.08358
20.484 1.06392
20.5069 1.04376
20.5298 1.0268
20.5527 1.01156
20.5756 0.994651
20.5985 0.98636
20.6214 0.983187
20.6442 0.981448
20.6671 0.981372
20.69 0.984731
20.7129 0.989457
20.7358 0.996617
20.7587 1.00573
20.7816 1.00917
20.8045 1.01237
20.8273 1.01148
20.8502 1.01001
20.8731 0.99761
20.896 0.992723
20.9189 0.989118
20.9418 0.995457
20.9647 1.00633
20.9876 1.02142
21.0104 1.02782
21.0333 1.03308
21.0562 1.04017
21.0791 1.04326
21.102 1.03446
21.1249 1.02073
21.1478 1.00963
21.1707 1.00346
21.1935 0.995958
21.2164 0.98684
21.2393 0.984113
21.2622 0.982861
21.2851 0.982505
21.308 0.982582
21.3309 0.985566
21.3538 0.991221
21.3766 0.994628
21.3995 0.995856
21.4224 0.996328
21.4453 0.997126
21.4682 0.992862
21.4911 0.992645
21.514 0.986369
21.5369 0.989265
21.5597 0.99038
21.5826 0.997497
21.6055 1.00223
21.6284 1.00669
21.6513 1.01245
21.6742 1.01428
21.6971 1.01026
21.7199 1.00236
21.7428 0.995117
21.7657 0.989322
21.7886 0.986681
21.8115 0.984032
21.8344 0.986166
21.8573 0.98363
21.8802 0.985986
21.903 0.991979
21.9259 0.999549
21.9488 1.00689
21.9717 1.01064
21.9946 1.00778
22.0175 1.00948
22.0404 1.01018
22.0633 1.00939
22.0861 1.00151
22.109 1.00284
22.1319 1.00262
22.1548 1.01012
22.1777 1.01579
22.2006 1.01972
22.2235 1.02139
22.2464 1.01924
22.2692 1.01017
22.2921 1.00239
22.315 0.996382
22.3379 0.987173
22.3608 0.987868
22.3837 0.986758
22.4066 0.985899
22.4295 0.985962
22.4523 0.98678
22.4752 0.984837
22.4981 0.991265
22.521 0.991231
22.5439 0.990348
22.5668 0.991987
22.5897 0.990742
22.6125 0.988924
22.6354 0.988698
22.6583 0.992979
22.6812 0.992062
22.7041 0.991906
22.727 0.994912
22.7499 0.996918
22.7728 1.00774
22.7956 1.01507
22.8185 1.01518
22.8414 1.0162
22.8643 1.01272
22.8872 1.01285
22.9101 1.00713
22.933 1.00329
22.9559 0.995822
22.9787 0.991433
23.0016 0.990095
23.0245 0.990114
23.0474 0.994292
23.0703 0.995052
23.0932 0.997568
23.1161 0.997398
23.139 0.997759
23.1618 1.00124
23.1847 1.0029
23.2076 0.998239
23.2305 1.00181
23.2534 1.00511
23.2763 1.01115
23.2992 1.00747
23.3221 1.01091
23.3449 1.01645
23.3678 1.01945
23.3907 1.01872
23.4136 1.00932
23.4365 1.00598
23.4594 0.99697
23.4823 0.987454
23.5051 0.986858
23.528 0.983719
23.5509 0.986425
23.5738 0.986703
23.5967 0.993253
23.6196 0.99208
23.6425 0.989235
23.6654 0.988708
23.6882 0.994056
23.7111 0.989559
23.734 0.996117
23.7569 0.996522
23.7798 0.997801
23.8027 1.00416
23.8256 1.01147
23.8485 1.01395
23.8713 1.01514
23.8942 1.01726
23.9171 1.01924
23.94 1.01509
23.9629 1.01111
23.9858 1.00702
