[DEFAULT]

version = diffpy.pdfgetx-2.1.0

# input and output specifications
dataformat = QA
backgroundfile =
outputtype = sq

# PDF calculation setup
mode = xray
composition = Ni
bgscale = 1
rpoly = 2
qmaxinst = 25
qmin = 0
qmax = 24
rmin = 2
rmax = 60
rstep = 0.01

# End of config --------------------------------------------------------------

#### start data
#S 1
#L Q(Ã…$^{-1}$)  S(a.u.)
0 -0.800187
0.0227393 -0.685575
0.0454785 -0.575654
0.0682178 -0.472049
0.0909571 -0.373907
0.113696 -0.280836
0.136436 -0.193184
0.159175 -0.108288
0.181914 -0.0281855
0.204653 0.0477287
0.227393 0.119648
0.250132 0.188869
0.272871 0.258444
0.29561 0.329592
0.31835 0.422172
0.341089 0.543104
0.363828 0.644683
0.386567 0.646974
0.409307 0.649161
0.432046 0.667591
0.454785 0.696721
0.477525 0.736487
0.500264 0.775164
0.523003 0.810582
0.545742 0.843448
0.568482 0.876845
0.591221 0.909497
0.61396 0.94054
0.636699 0.97227
0.659439 1.00174
0.682178 1.02861
0.704917 1.05348
0.727656 1.07563
0.750396 1.09544
0.773135 1.11192
0.795874 1.12486
0.818614 1.13327
0.841353 1.13993
0.864092 1.14623
0.886831 1.1527
0.909571 1.15947
0.93231 1.16666
0.955049 1.17488
0.977788 1.18254
1.00053 1.18914
1.02327 1.19384
1.04601 1.19585
1.06875 1.19549
1.09148 1.19397
1.11422 1.19302
1.13696 1.19223
1.1597 1.19086
1.18244 1.18853
1.20518 1.18509
1.22792 1.18147
1.25066 1.17865
1.2734 1.17556
1.29614 1.17245
1.31888 1.16889
1.34162 1.16425
1.36436 1.15901
1.3871 1.15228
1.40983 1.14391
1.43257 1.135
1.45531 1.12559
1.47805 1.11532
1.50079 1.10469
1.52353 1.09285
1.54627 1.07965
1.56901 1.06514
1.59175 1.05004
1.61449 1.03469
1.63723 1.01951
1.65997 1.00561
1.68271 0.992567
1.70544 0.98073
1.72818 0.969844
1.75092 0.959742
1.77366 0.950652
1.7964 0.942994
1.81914 0.93422
1.84188 0.924743
1.86462 0.915301
1.88736 0.905682
1.9101 0.895792
1.93284 0.885718
1.95558 0.876541
1.97832 0.867008
2.00106 0.857323
2.02379 0.848169
2.04653 0.83939
2.06927 0.830817
2.09201 0.822752
2.11475 0.815825
2.13749 0.809892
2.16023 0.80386
2.18297 0.797057
2.20571 0.790858
2.22845 0.784765
2.25119 0.778733
2.27393 0.773553
2.29667 0.769222
2.3194 0.76463
2.34214 0.760159
2.36488 0.756202
2.38762 0.752717
2.41036 0.749282
2.4331 0.746618
2.45584 0.744359
2.47858 0.742283
2.50132 0.740223
2.52406 0.738872
2.5468 0.737563
2.56954 0.73616
2.59228 0.734769
2.61502 0.734003
2.63775 0.733769
2.66049 0.733759
2.68323 0.733655
2.70597 0.733827
2.72871 0.734143
2.75145 0.734341
2.77419 0.734992
2.79693 0.736158
2.81967 0.737697
2.84241 0.739983
2.86515 0.74328
2.88789 0.747524
2.91063 0.754338
2.93337 0.765746
2.9561 0.788658
2.97884 0.840755
3.00158 0.978857
3.02432 1.38804
3.04706 2.47468
3.0698 4.11896
3.09254 4.7713
3.11528 3.53065
3.13802 2.03432
3.16076 1.23497
3.1835 0.942291
3.20624 0.836594
3.22898 0.793362
3.25171 0.774674
3.27445 0.76501
3.29719 0.758918
3.31993 0.755379
3.34267 0.75368
3.36541 0.753256
3.38815 0.755521
3.41089 0.760669
3.43363 0.773036
3.45637 0.803346
3.47911 0.881383
3.50185 1.11366
3.52459 1.66616
3.54733 2.55588
3.57006 2.90076
3.5928 2.27496
3.61554 1.45126
3.63828 1.01279
3.66102 0.849058
3.68376 0.791118
3.7065 0.767531
3.72924 0.756992
3.75198 0.752734
3.77472 0.750569
3.79746 0.74963
3.8202 0.748759
3.84294 0.747911
3.86567 0.747099
3.88841 0.746826
3.91115 0.747675
3.93389 0.747699
3.95663 0.748125
3.97937 0.748974
4.00211 0.749241
4.02485 0.749518
4.04759 0.749922
4.07033 0.750773
4.09307 0.751554
4.11581 0.752662
4.13855 0.753838
4.16129 0.75512
4.18402 0.755959
4.20676 0.757199
4.2295 0.758007
4.25224 0.758611
4.27498 0.759792
4.29772 0.761195
4.32046 0.762214
4.3432 0.762867
4.36594 0.763846
4.38868 0.765206
4.41142 0.766476
4.43416 0.76767
4.4569 0.768526
4.47963 0.769901
4.50237 0.771417
4.52511 0.773097
4.54785 0.774222
4.57059 0.775797
4.59333 0.777351
4.61607 0.778557
4.63881 0.780518
4.66155 0.782339
4.68429 0.783839
4.70703 0.785821
4.72977 0.788117
4.75251 0.79072
4.77525 0.792779
4.79798 0.795706
4.82072 0.798635
4.84346 0.80255
4.8662 0.808155
4.88894 0.817089
4.91168 0.832359
4.93442 0.864009
4.95716 0.947906
4.9799 1.18556
5.00264 1.75856
5.02538 2.61951
5.04812 2.89697
5.07086 2.23867
5.0936 1.46127
5.11633 1.06792
5.13907 0.9207
5.16181 0.866696
5.18455 0.845311
5.20729 0.83608
5.23003 0.831793
5.25277 0.828551
5.27551 0.827154
5.29825 0.826386
5.32099 0.825632
5.34373 0.82519
5.36647 0.825032
5.38921 0.825085
5.41194 0.824551
5.43468 0.824511
5.45742 0.824768
5.48016 0.824883
5.5029 0.825216
5.52564 0.826063
5.54838 0.827395
5.57112 0.828595
5.59386 0.829485
5.6166 0.830909
5.63934 0.833258
5.66208 0.835948
5.68482 0.838885
5.70756 0.842515
5.73029 0.847571
5.75303 0.855733
5.77577 0.87102
5.79851 0.903683
5.82125 0.984783
5.84399 1.2176
5.86673 1.82119
5.88947 2.89658
5.91221 3.60989
5.93495 3.06206
5.95769 1.96215
5.98043 1.28792
6.00317 1.01315
6.0259 0.918244
6.04864 0.88613
6.07138 0.882449
6.09412 0.91077
6.11686 1.00851
6.1396 1.24665
6.16234 1.54596
6.18508 1.60267
6.20782 1.33096
6.23056 1.04461
6.2533 0.906738
6.27604 0.854101
6.29878 0.833441
6.32152 0.823725
6.34425 0.818716
6.36699 0.81456
6.38973 0.810506
6.41247 0.807712
6.43521 0.805531
6.45795 0.80433
6.48069 0.802616
6.50343 0.800226
6.52617 0.799072
6.54891 0.798047
6.57165 0.797191
6.59439 0.796674
6.61713 0.795461
6.63987 0.794557
6.6626 0.793267
6.68534 0.791844
6.70808 0.791416
6.73082 0.791181
6.75356 0.790392
6.7763 0.789448
6.79904 0.789413
6.82178 0.788455
6.84452 0.789002
6.86726 0.789563
6.89 0.789444
6.91274 0.789679
6.93548 0.789859
6.95821 0.790941
6.98095 0.793117
7.00369 0.795825
7.02643 0.802872
7.04917 0.822971
7.07191 0.875157
7.09465 0.991782
7.11739 1.14502
7.14013 1.17704
7.16287 1.04948
7.18561 0.90815
7.20835 0.837992
7.23109 0.812063
7.25383 0.802703
7.27656 0.798776
7.2993 0.797672
7.32204 0.797967
7.34478 0.798913
7.36752 0.799233
7.39026 0.800778
7.413 0.802221
7.43574 0.803215
7.45848 0.80465
7.48122 0.806956
7.50396 0.809103
7.5267 0.812252
7.54944 0.815188
7.57217 0.81822
7.59491 0.824481
7.61765 0.833194
7.64039 0.845222
7.66313 0.869024
7.68587 0.929811
7.70861 1.09604
7.73135 1.49582
7.75409 2.08639
7.77683 2.28959
7.79957 1.8633
7.82231 1.31952
7.84505 1.04287
7.86779 0.959368
7.89052 0.980246
7.91326 1.13505
7.936 1.50436
7.95874 2.00989
7.98148 2.1246
8.00422 1.70233
8.02696 1.22963
8.0497 0.990467
8.07244 0.901396
8.09518 0.867294
8.11792 0.852137
8.14066 0.845285
8.1634 0.840474
8.18614 0.838194
8.20887 0.837518
8.23161 0.836025
8.25435 0.834422
8.27709 0.832665
8.29983 0.832233
8.32257 0.832621
8.34531 0.833743
8.36805 0.832777
8.39079 0.832806
8.41353 0.834126
8.43627 0.835075
8.45901 0.836159
8.48175 0.837186
8.50448 0.838659
8.52722 0.841952
8.54996 0.84432
8.5727 0.848258
8.59544 0.856129
8.61818 0.869397
8.64092 0.901141
8.66366 0.986646
8.6864 1.21212
8.70914 1.62145
8.73188 1.90553
8.75462 1.71748
8.77736 1.30868
8.8001 1.03463
8.82283 0.922372
8.84557 0.882208
8.86831 0.867177
8.89105 0.859338
8.91379 0.855652
8.93653 0.853388
8.95927 0.852321
8.98201 0.852354
9.00475 0.85119
9.02749 0.84981
9.05023 0.852264
9.07297 0.854709
9.09571 0.855902
9.11844 0.861336
9.14118 0.873643
9.16392 0.899181
9.18666 0.968471
9.2094 1.15622
9.23214 1.54628
9.25488 1.9519
9.27762 1.90039
9.30036 1.47974
9.3231 1.1155
9.34584 0.950411
9.36858 0.891038
9.39132 0.866611
9.41406 0.854794
9.43679 0.849695
9.45953 0.846398
9.48227 0.843408
9.50501 0.842813
9.52775 0.841344
9.55049 0.839357
9.57323 0.837394
9.59597 0.835715
9.61871 0.834588
9.64145 0.835016
9.66419 0.836252
9.68693 0.836701
9.70967 0.836664
9.7324 0.83679
9.75514 0.836108
9.77788 0.836085
9.80062 0.836667
9.82336 0.837948
9.8461 0.83975
9.86884 0.840085
9.89158 0.842184
9.91432 0.845166
9.93706 0.848352
9.9598 0.852
9.98254 0.859318
10.0053 0.87819
10.028 0.927879
10.0508 1.02893
10.0735 1.14407
10.0962 1.15
10.119 1.04064
10.1417 0.941836
10.1645 0.894761
10.1872 0.876997
10.2099 0.871972
10.2327 0.871186
10.2554 0.87109
10.2781 0.872255
10.3009 0.874783
10.3236 0.87648
10.3464 0.879644
10.3691 0.885239
10.3918 0.891635
10.4146 0.903361
10.4373 0.924447
10.4601 0.975642
10.4828 1.11048
10.5055 1.42941
10.5283 1.90466
10.551 2.11786
10.5738 1.79396
10.5965 1.35131
10.6192 1.13586
10.642 1.149
10.6647 1.3442
10.6875 1.56883
10.7102 1.54134
10.7329 1.28246
10.7557 1.06086
10.7784 0.958835
10.8012 0.920993
10.8239 0.905545
10.8466 0.897198
10.8694 0.891113
10.8921 0.887765
10.9148 0.884199
10.9376 0.881925
10.9603 0.880676
10.9831 0.879237
11.0058 0.877564
11.0285 0.878024
11.0513 0.878191
11.074 0.877165
11.0968 0.877309
11.1195 0.877254
11.1422 0.880041
11.165 0.886641
11.1877 0.905861
11.2105 0.957301
11.2332 1.07924
11.2559 1.25607
11.2787 1.3233
11.3014 1.20044
11.3242 1.03256
11.3469 0.934607
11.3696 0.896532
11.3924 0.882571
11.4151 0.877218
11.4378 0.874498
11.4606 0.872897
11.4833 0.873741
11.5061 0.875267
11.5288 0.877427
11.5515 0.880694
11.5743 0.886114
11.597 0.898994
11.6198 0.936466
11.6425 1.02675
11.6652 1.18652
11.688 1.29812
11.7107 1.23359
11.7335 1.08225
11.7562 1.00968
11.7789 1.0493
11.8017 1.17024
11.8244 1.25255
11.8472 1.17961
11.8699 1.03654
11.8926 0.941762
11.9154 0.900713
11.9381 0.88357
11.9609 0.876813
11.9836 0.874151
12.0063 0.872301
12.0291 0.871806
12.0518 0.870964
12.0745 0.869994
12.0973 0.869467
12.12 0.869061
12.1428 0.867196
12.1655 0.86921
12.1882 0.87112
12.211 0.871671
12.2337 0.873954
12.2565 0.879466
12.2792 0.889772
12.3019 0.911415
12.3247 0.950445
12.3474 0.98108
12.3702 0.967716
12.3929 0.927852
12.4156 0.899891
12.4384 0.888228
12.4611 0.884919
12.4839 0.884887
12.5066 0.885909
12.5293 0.88997
12.5521 0.893292
12.5748 0.896899
12.5976 0.902627
12.6203 0.914403
12.643 0.941926
12.6658 1.01216
12.6885 1.17223
12.7112 1.40779
12.734 1.52212
12.7567 1.3736
12.7795 1.16264
12.8022 1.08223
12.8249 1.13284
12.8477 1.21007
12.8704 1.1839
12.8932 1.06899
12.9159 0.976921
12.9386 0.937458
12.9614 0.923162
12.9841 0.917923
13.0069 0.914776
13.0296 0.912447
13.0523 0.912321
13.0751 0.910784
13.0978 0.912377
13.1206 0.915199
13.1433 0.914717
13.166 0.916315
13.1888 0.919969
13.2115 0.926802
13.2343 0.936356
13.257 0.962545
13.2797 1.02946
13.3025 1.17546
13.3252 1.36588
13.3479 1.416
13.3707 1.25928
13.3934 1.07886
13.4162 0.986509
13.4389 0.954556
13.4616 0.943397
13.4844 0.939341
13.5071 0.937401
13.5299 0.9372
13.5526 0.940125
13.5753 0.947792
13.5981 0.969951
13.6208 1.02629
13.6436 1.16741
13.6663 1.4151
13.689 1.59885
13.7118 1.50579
13.7345 1.24309
13.7573 1.05605
13.78 0.976554
13.8027 0.944345
13.8255 0.933711
13.8482 0.928161
13.871 0.925565
13.8937 0.921815
13.9164 0.917654
13.9392 0.915638
13.9619 0.915604
13.9846 0.914009
14.0074 0.912915
14.0301 0.911053
14.0529 0.910484
14.0756 0.90953
14.0983 0.908718
14.1211 0.90797
14.1438 0.907509
14.1666 0.909555
14.1893 0.913208
14.212 0.922641
14.2348 0.938311
14.2575 0.947601
14.2803 0.942435
14.303 0.92902
14.3257 0.919482
14.3485 0.912211
14.3712 0.911132
14.394 0.910661
14.4167 0.911994
14.4394 0.913386
14.4622 0.91611
14.4849 0.921472
14.5077 0.933551
14.5304 0.958424
14.5531 1.00852
14.5759 1.07532
14.5986 1.10074
14.6213 1.07039
14.6441 1.06475
14.6668 1.13619
14.6896 1.23077
14.7123 1.22274
14.735 1.11245
14.7578 1.0085
14.7805 0.956339
14.8033 0.93736
14.826 0.929568
14.8487 0.927869
14.8715 0.924397
14.8942 0.924796
14.917 0.925779
14.9397 0.928232
14.9624 0.927444
14.9852 0.926241
15.0079 0.930582
15.0307 0.93849
15.0534 0.957258
15.0761 1.00285
15.0989 1.07824
15.1216 1.13532
15.1443 1.10962
15.1671 1.03421
15.1898 0.975499
15.2126 0.949611
15.2353 0.941328
15.258 0.940057
15.2808 0.940339
15.3035 0.941911
15.3263 0.948826
15.349 0.96298
15.3717 0.998935
15.3945 1.08008
15.4172 1.20123
15.44 1.26062
15.4627 1.19315
15.4854 1.09987
15.5082 1.07106
15.5309 1.0819
15.5537 1.06696
15.5764 1.01927
15.5991 0.977068
15.6219 0.955153
15.6446 0.9475
15.6674 0.94437
15.6901 0.942135
15.7128 0.942722
15.7356 0.942399
15.7583 0.941948
15.781 0.940588
15.8038 0.939287
15.8265 0.941032
15.8493 0.946576
15.872 0.957091
15.8947 0.979939
15.9175 1.01523
15.9402 1.04289
15.963 1.03084
15.9857 0.99543
16.0084 0.967467
16.0312 0.954607
16.0539 0.951111
16.0767 0.952512
16.0994 0.956454
16.1221 0.960529
16.1449 0.970718
16.1676 0.99909
16.1904 1.06446
16.2131 1.17641
16.2358 1.26081
16.2586 1.23272
16.2813 1.15289
16.3041 1.13335
16.3268 1.16017
16.3495 1.1448
16.3723 1.07536
16.395 1.0091
16.4177 0.97474
16.4405 0.963297
16.4632 0.955076
16.486 0.948623
16.5087 0.945293
16.5314 0.943919
16.5542 0.945671
16.5769 0.945583
16.5997 0.946189
16.6224 0.946042
16.6451 0.95131
16.6679 0.969352
16.6906 1.00084
16.7134 1.0276
16.7361 1.02205
16.7588 0.991857
16.7816 0.965952
16.8043 0.951299
16.8271 0.944928
16.8498 0.944119
16.8725 0.943939
16.8953 0.945381
16.918 0.954034
16.9408 0.973979
16.9635 1.01833
16.9862 1.07277
17.009 1.09133
17.0317 1.05126
17.0544 0.995886
17.0772 0.963353
17.0999 0.949496
17.1227 0.944157
17.1454 0.942589
17.1681 0.939975
17.1909 0.94124
17.2136 0.941581
17.2364 0.939112
17.2591 0.940512
17.2818 0.941904
17.3046 0.941316
17.3273 0.941124
17.3501 0.943466
17.3728 0.948878
17.3955 0.95664
17.4183 0.973689
17.441 1.00131
17.4638 1.01543
17.4865 1.00211
17.5092 0.979291
17.532 0.96401
17.5547 0.95892
17.5775 0.959431
17.6002 0.959829
17.6229 0.963451
17.6457 0.974543
17.6684 0.998247
17.6911 1.05116
17.7139 1.12237
17.7366 1.15824
17.7594 1.12607
17.7821 1.0777
17.8048 1.05885
17.8276 1.0507
17.8503 1.02899
17.8731 1.00132
17.8958 0.980031
17.9185 0.971631
17.9413 0.971328
17.964 0.967685
17.9868 0.968413
18.0095 0.969115
18.0322 0.969475
18.055 0.973644
18.0777 0.979552
18.1005 0.990063
18.1232 1.02156
18.1459 1.07778
18.1687 1.12676
18.1914 1.11909
18.2142 1.06459
18.2369 1.01603
18.2596 0.99194
18.2824 0.982967
18.3051 0.980866
18.3278 0.982781
18.3506 0.988399
18.3733 1.00849
18.3961 1.05014
18.4188 1.10632
18.4415 1.12801
18.4643 1.10142
18.487 1.06758
18.5098 1.05463
18.5325 1.04265
18.5552 1.01876
18.578 0.991891
18.6007 0.977465
18.6235 0.971572
18.6462 0.970761
18.6689 0.965851
18.6917 0.966124
18.7144 0.967812
18.7372 0.965929
18.7599 0.964819
18.7826 0.963747
18.8054 0.963693
18.8281 0.961829
18.8508 0.963468
18.8736 0.965154
18.8963 0.968495
18.9191 0.968437
18.9418 0.968266
18.9645 0.967738
18.9873 0.970012
19.01 0.972561
19.0328 0.977716
19.0555 0.993096
19.0782 1.02043
19.101 1.0549
19.1237 1.068
19.1465 1.06724
19.1692 1.08395
19.1919 1.09702
19.2147 1.07642
19.2374 1.03205
19.2602 0.997847
19.2829 0.981256
19.3056 0.976799
19.3284 0.971994
19.3511 0.969639
19.3739 0.967371
19.3966 0.969483
19.4193 0.971104
19.4421 0.977579
19.4648 0.986987
19.4875 1.00828
19.5103 1.02755
19.533 1.02736
19.5558 1.00938
19.5785 0.986018
19.6012 0.976313
19.624 0.970721
19.6467 0.968824
19.6695 0.967453
19.6922 0.975483
19.7149 0.988977
19.7377 1.00995
19.7604 1.0257
19.7832 1.02106
19.8059 0.997284
19.8286 0.977767
19.8514 0.968182
19.8741 0.966704
19.8969 0.96617
19.9196 0.966778
19.9423 0.96336
19.9651 0.965096
19.9878 0.966082
20.0106 0.96363
20.0333 0.960435
20.056 0.964096
20.0788 0.966266
20.1015 0.969442
20.1242 0.974352
20.147 0.979515
20.1697 0.981844
20.1925 0.9783
20.2152 0.976084
20.2379 0.979178
20.2607 0.977278
20.2834 0.980082
20.3062 0.987039
20.3289 1.00234
20.3516 1.03521
20.3744 1.07929
20.3971 1.11065
20.4199 1.10356
20.4426 1.0792
20.4653 1.05888
20.4881 1.04247
20.5108 1.01938
20.5336 1.00008
20.5563 0.988597
20.579 0.98394
20.6018 0.981487
20.6245 0.979965
20.6473 0.983166
20.67 0.984297
20.6927 0.986345
20.7155 0.990186
20.7382 1.00202
20.7609 1.01902
20.7837 1.02937
20.8064 1.01909
20.8292 1.00549
20.8519 0.992206
20.8746 0.984039
20.8974 0.986518
20.9201 0.990344
20.9429 0.998861
20.9656 1.01561
20.9883 1.03722
21.0111 1.05243
21.0338 1.05034
21.0566 1.04043
21.0793 1.03353
21.102 1.02504
21.1248 1.00969
21.1475 0.994524
21.1703 0.98847
21.193 0.985026
21.2157 0.984947
21.2385 0.981765
21.2612 0.978892
21.284 0.980497
21.3067 0.983633
21.3294 0.986289
21.3522 0.996715
21.3749 1.00528
21.3976 1.00451
21.4204 0.998471
21.4431 0.989043
21.4659 0.986286
21.4886 0.984635
21.5113 0.983734
21.5341 0.984366
21.5568 0.995618
21.5796 1.00646
21.6023 1.01836
21.625 1.02244
21.6478 1.01682
21.6705 1.00989
21.6933 1.00161
21.716 0.994235
21.7387 0.986146
21.7615 0.98371
21.7842 0.984024
21.807 0.982548
21.8297 0.983813
21.8524 0.981945
21.8752 0.986168
21.8979 0.992575
21.9207 1.00329
21.9434 1.0204
21.9661 1.02707
21.9889 1.02052
22.0116 1.00664
22.0343 0.997861
22.0571 0.993689
22.0798 0.990813
22.1026 0.992579
22.1253 1.00122
22.148 1.01944
22.1708 1.04033
22.1935 1.04184
22.2163 1.02551
22.239 1.00434
22.2617 0.991335
22.2845 0.988996
22.3072 0.98726
22.33 0.986215
22.3527 0.988064
22.3754 0.985809
22.3982 0.985314
22.4209 0.985522
22.4437 0.98662
22.4664 0.985184
22.4891 0.985907
22.5119 0.993608
22.5346 0.994819
22.5573 0.99515
22.5801 0.994793
22.6028 0.989121
22.6256 0.984767
22.6483 0.985828
22.671 0.990861
22.6938 0.996546
22.7165 0.997476
22.7393 1.00155
22.762 1.01
22.7847 1.02116
22.8075 1.0305
22.8302 1.02946
22.853 1.01757
22.8757 1.00366
22.8984 0.993213
22.9212 0.991186
22.9439 0.987929
22.9667 0.985344
22.9894 0.987775
23.0121 0.993733
23.0349 0.997607
23.0576 0.998583
23.0804 1.0035
23.1031 1.00548
23.1258 0.999775
23.1486 0.997585
23.1713 0.995456
23.194 0.993356
23.2168 0.996137
23.2395 1.00302
23.2623 1.01503
23.285 1.03034
23.3077 1.0321
23.3305 1.02564
23.3532 1.01462
23.376 1.0057
23.3987 1.00006
23.4214 0.995151
23.4442 0.990836
23.4669 0.983975
23.4897 0.985649
23.5124 0.985115
23.5351 0.986206
23.5579 0.990306
23.5806 0.991752
23.6034 0.990779
23.6261 0.990192
23.6488 0.992977
23.6716 0.992947
23.6943 0.991753
23.7171 0.993621
23.7398 0.99331
23.7625 0.996592
23.7853 1.00285
23.808 1.01548
23.8307 1.02681
23.8535 1.0299
23.8762 1.03054
23.899 1.01958
23.9217 1.01346
23.9444 1.0043
23.9672 0.995251
23.9899 0.991978
